Data from repetition_3.txt_16-47-09-365.txt Node
Date: Sun Jun 13 23:27:09 CET 2021
User: fcossio
Spectrometer: FLMS15016
Trigger mode: 0
Integration Time (sec): 3.000000E-1Scans to average: 1
Electric dark correction enabled: true
Nonlinearity correction enabled: false
Boxcar width: 0
XAxis mode: Wavelengths
Number of Pixels in Spectrum: 2048
>>>>>Begin Spectral Data<<<<<
340.154	940.655
340.487	941.392
340.821	941.294
341.154	941.785
341.488	942.058
341.821	942.326
342.155	942.665
342.488	942.300
342.821	943.071
343.155	944.562
343.488	942.660
343.822	943.278
344.155	944.409
344.489	944.639
344.822	944.189
345.155	944.162
345.489	946.337
345.822	945.811
346.156	947.791
346.489	946.429
346.823	946.726
347.156	945.729
347.490	946.179
347.823	947.530
348.156	947.761
348.490	947.519
348.823	948.573
349.157	947.916
349.490	948.467
349.824	948.031
350.157	948.748
350.490	949.455
350.824	950.233
351.157	949.958
351.491	950.680
351.824	950.537
352.158	950.101
352.491	950.421
352.824	950.666
353.158	951.009
353.491	952.326
353.825	951.849
354.158	951.997
354.492	952.595
354.825	952.899
355.158	953.700
355.492	953.067
355.825	953.196
356.159	953.740
356.492	953.339
356.826	954.032
357.159	955.697
357.492	954.630
357.826	954.737
358.159	954.647
358.493	955.064
358.826	956.472
359.160	956.012
359.493	955.383
359.826	957.341
360.160	955.947
360.493	956.636
360.827	957.399
361.160	957.183
361.494	957.725
361.827	957.863
362.161	957.892
362.494	958.543
362.827	959.240
363.161	959.590
363.494	959.316
363.828	960.302
364.161	959.743
364.495	959.710
364.828	959.496
365.161	960.492
365.495	960.178
365.828	960.175
366.162	960.882
366.495	961.217
366.829	962.067
367.162	961.013
367.495	962.027
367.829	962.770
368.162	961.912
368.496	962.820
368.829	961.990
369.163	963.087
369.496	962.378
369.829	964.024
370.163	963.160
370.496	963.551
370.830	964.459
371.163	964.718
371.497	964.862
371.830	964.423
372.163	964.833
372.497	965.194
372.830	965.282
373.164	966.360
373.497	966.122
373.831	965.149
374.164	965.945
374.497	966.445
374.831	967.851
375.164	966.803
375.498	967.173
375.831	967.692
376.165	967.868
376.498	969.020
376.832	967.980
377.165	967.957
377.498	968.877
377.832	970.171
378.165	969.139
378.499	969.649
378.832	969.167
379.166	969.081
379.499	969.983
379.832	970.602
380.166	970.697
380.499	970.494
380.833	971.118
381.166	971.141
381.500	971.402
381.833	971.319
382.166	971.809
382.500	972.307
382.833	971.619
383.167	972.984
383.500	972.201
383.834	972.701
384.167	973.016
384.500	973.542
384.834	972.543
385.167	973.317
385.501	973.679
385.834	974.330
386.168	974.484
386.501	975.010
386.834	974.685
387.168	975.329
387.501	975.420
387.835	975.855
388.168	974.103
388.502	975.598
388.835	976.248
389.168	977.568
389.502	976.700
389.835	977.115
390.169	976.265
390.502	977.550
390.836	978.184
391.169	976.870
391.503	977.219
391.836	977.471
392.169	977.697
392.503	978.325
392.836	977.850
393.170	979.003
393.503	979.404
393.837	978.811
394.170	979.723
394.503	979.701
394.837	979.860
395.170	980.022
395.504	979.524
395.837	979.914
396.171	980.106
396.504	980.871
396.837	981.215
397.171	980.747
397.504	980.711
397.838	981.429
398.171	981.381
398.505	982.698
398.838	981.113
399.171	981.713
399.505	982.050
399.838	982.967
400.172	982.597
400.505	982.415
400.839	983.028
401.172	983.079
401.505	983.746
401.839	983.576
402.172	983.934
402.506	984.239
402.839	983.407
403.173	984.945
403.506	984.699
403.839	984.106
404.173	984.601
404.506	985.598
404.840	986.161
405.173	985.700
405.507	986.083
405.840	985.552
406.174	986.193
406.507	986.586
406.840	986.983
407.174	986.623
407.507	986.999
407.841	986.761
408.174	986.560
408.508	987.249
408.841	988.074
409.174	986.950
409.508	987.449
409.841	987.742
410.175	987.826
410.508	988.635
410.842	988.276
411.175	989.324
411.508	989.277
411.842	988.623
412.175	988.686
412.509	989.212
412.842	989.934
413.176	989.520
413.509	990.571
413.842	990.095
414.176	991.301
414.509	990.701
414.843	990.357
415.176	991.161
415.510	991.410
415.843	991.872
416.176	991.355
416.510	991.443
416.843	992.273
417.177	991.870
417.510	992.347
417.844	992.456
418.177	992.393
418.510	992.708
418.844	992.591
419.177	993.051
419.511	992.329
419.844	994.290
420.178	992.829
420.511	993.249
420.845	994.411
421.178	993.867
421.511	993.976
421.845	994.406
422.178	993.867
422.512	994.926
422.845	993.778
423.179	994.184
423.512	995.133
423.845	995.558
424.179	995.358
424.512	994.452
424.846	996.041
425.179	995.375
425.513	995.876
425.846	995.667
426.179	995.786
426.513	996.223
426.846	996.244
427.180	997.133
427.513	997.483
427.847	997.296
428.180	996.820
428.513	997.101
428.847	997.813
429.180	996.820
429.514	999.280
429.847	997.878
430.181	998.138
430.514	997.889
430.847	998.550
431.181	998.871
431.514	998.660
431.848	998.972
432.181	999.232
432.515	999.027
432.848	999.481
433.181	999.406
433.515	999.400
433.848	1001.012
434.182	999.533
434.515	999.839
434.849	1000.291
435.182	1000.337
435.516	1001.886
435.849	1000.422
436.182	1001.042
436.516	1001.338
436.849	1001.561
437.183	1001.639
437.516	1001.806
437.850	1001.908
438.183	1001.533
438.516	1002.248
438.850	1002.361
439.183	1002.219
439.517	1002.145
439.850	1002.487
440.184	1003.490
440.517	1003.773
440.850	1001.940
441.184	1004.052
441.517	1002.959
441.851	1002.795
442.184	1003.319
442.518	1002.809
442.851	1004.178
443.184	1003.667
443.518	1003.896
443.851	1003.983
444.185	1004.599
444.518	1005.309
444.852	1004.715
445.185	1004.732
445.518	1004.163
445.852	1004.792
446.185	1005.531
446.519	1005.491
446.852	1004.367
447.186	1005.995
447.519	1005.859
447.852	1005.997
448.186	1005.455
448.519	1006.368
448.853	1006.668
449.186	1006.190
449.520	1006.138
449.853	1007.335
450.187	1006.919
450.520	1006.681
450.853	1006.889
451.187	1007.595
451.520	1008.170
451.854	1006.479
452.187	1007.775
452.521	1007.424
452.854	1008.132
453.187	1007.462
453.521	1007.281
453.854	1007.797
454.188	1008.386
454.521	1008.259
454.855	1007.903
455.188	1008.999
455.521	1008.188
455.855	1008.665
456.188	1008.767
456.522	1008.678
456.855	1009.384
457.189	1008.508
457.522	1009.667
457.855	1008.678
458.189	1008.981
458.522	1010.215
458.856	1009.781
459.189	1010.444
459.523	1010.521
459.856	1009.523
460.189	1010.638
460.523	1010.325
460.856	1009.257
461.190	1011.189
461.523	1011.022
461.857	1010.015
462.190	1011.082
462.523	1009.730
462.857	1010.537
463.190	1011.063
463.524	1010.972
463.857	1011.205
464.191	1010.784
464.524	1011.700
464.858	1012.287
465.191	1011.545
465.524	1012.195
465.858	1011.989
466.191	1012.890
466.525	1012.106
466.858	1012.758
467.192	1012.073
467.525	1012.957
467.858	1013.007
468.192	1013.324
468.525	1012.778
468.859	1012.879
469.192	1013.455
469.526	1012.882
469.859	1013.589
470.192	1012.760
470.526	1013.481
470.859	1013.464
471.193	1013.406
471.526	1014.044
471.860	1013.746
472.193	1013.775
472.526	1013.222
472.860	1013.466
473.193	1013.759
473.527	1015.032
473.860	1013.767
474.194	1015.054
474.527	1014.214
474.860	1014.894
475.194	1014.672
475.527	1014.878
475.861	1015.685
476.194	1015.387
476.528	1016.008
476.861	1014.171
477.194	1014.219
477.528	1015.319
477.861	1015.435
478.195	1016.129
478.528	1015.968
478.862	1015.619
479.195	1015.589
479.529	1015.291
479.862	1015.265
480.195	1016.254
480.529	1016.049
480.862	1015.619
481.196	1016.486
481.529	1016.116
481.863	1016.413
482.196	1016.418
482.529	1016.394
482.863	1017.202
483.196	1016.993
483.530	1016.577
483.863	1017.046
484.197	1017.354
484.530	1017.190
484.863	1017.619
485.197	1017.498
485.530	1016.752
485.864	1016.660
486.197	1016.972
486.531	1017.459
486.864	1017.666
487.197	1017.442
487.531	1017.274
487.864	1016.879
488.198	1017.832
488.531	1017.434
488.865	1018.600
489.198	1017.947
489.531	1017.845
489.865	1017.964
490.198	1017.802
490.532	1018.313
490.865	1018.061
491.199	1018.623
491.532	1018.874
491.865	1018.232
492.199	1018.528
492.532	1018.454
492.866	1018.705
493.199	1018.393
493.533	1018.445
493.866	1018.153
494.200	1018.709
494.533	1018.002
494.866	1019.154
495.200	1019.117
495.533	1018.595
495.867	1019.539
496.200	1019.409
496.534	1019.346
496.867	1018.480
497.200	1018.952
497.534	1019.506
497.867	1019.505
498.201	1019.381
498.534	1019.695
498.868	1020.016
499.201	1019.972
499.534	1019.488
499.868	1018.672
500.201	1018.983
500.535	1019.726
500.868	1019.147
501.202	1019.405
501.535	1019.988
501.868	1020.111
502.202	1019.783
502.535	1020.143
502.869	1018.881
503.202	1020.486
503.536	1019.812
503.869	1019.828
504.202	1019.379
504.536	1020.455
504.869	1020.209
505.203	1020.774
505.536	1020.632
505.870	1019.598
506.203	1021.045
506.536	1020.896
506.870	1020.183
507.203	1020.196
507.537	1021.005
507.870	1021.371
508.204	1022.208
508.537	1020.765
508.871	1019.923
509.204	1021.767
509.537	1020.942
509.871	1020.989
510.204	1021.585
510.538	1020.438
510.871	1020.690
511.205	1021.128
511.538	1020.637
511.871	1020.639
512.205	1022.379
512.538	1021.610
512.872	1021.485
513.205	1021.431
513.539	1020.632
513.872	1021.906
514.205	1021.595
514.539	1021.347
514.872	1021.506
515.206	1021.565
515.539	1022.142
515.873	1021.616
516.206	1021.991
516.539	1021.863
516.873	1022.155
517.206	1022.251
517.540	1022.056
517.873	1022.043
518.207	1021.674
518.540	1022.358
518.873	1021.806
519.207	1021.274
519.540	1021.477
519.874	1022.274
520.207	1022.049
520.541	1022.253
520.874	1021.803
521.207	1021.964
521.541	1022.425
521.874	1021.315
522.208	1022.941
522.541	1021.727
522.875	1021.479
523.208	1022.926
523.542	1022.017
523.875	1022.462
524.208	1022.290
524.542	1022.059
524.875	1021.799
525.209	1022.408
525.542	1023.071
525.876	1021.606
526.209	1022.721
526.542	1022.523
526.876	1021.356
527.209	1021.525
527.543	1021.877
527.876	1022.553
528.210	1022.861
528.543	1022.593
528.876	1022.403
529.210	1021.950
529.543	1022.654
529.877	1022.278
530.210	1023.111
530.544	1022.201
530.877	1022.854
531.210	1022.484
531.544	1022.389
531.877	1022.536
532.211	1022.706
532.544	1022.849
532.878	1021.490
533.211	1023.327
533.544	1022.218
533.878	1023.294
534.211	1022.474
534.545	1022.980
534.878	1022.474
535.212	1022.452
535.545	1022.891
535.878	1022.121
536.212	1022.237
536.545	1022.159
536.879	1022.781
537.212	1023.113
537.546	1022.927
537.879	1021.701
538.213	1022.827
538.546	1023.881
538.879	1022.050
539.213	1022.233
539.546	1022.068
539.880	1022.246
540.213	1021.739
540.547	1022.155
540.880	1021.882
541.213	1022.423
541.547	1021.595
541.880	1022.784
542.214	1022.339
542.547	1022.690
542.881	1022.713
543.214	1022.658
543.547	1022.818
543.881	1022.274
544.214	1021.574
544.548	1022.111
544.881	1022.552
545.215	1022.664
545.548	1021.818
545.881	1022.557
546.215	1021.512
546.548	1022.867
546.882	1022.159
547.215	1021.903
547.549	1022.672
547.882	1022.415
548.215	1022.741
548.549	1021.859
548.882	1021.735
549.216	1021.571
549.549	1022.144
549.883	1022.496
550.216	1022.452
550.549	1021.564
550.883	1021.665
551.216	1021.732
551.550	1021.602
551.883	1022.537
552.217	1021.894
552.550	1021.162
552.884	1021.927
553.217	1021.587
553.550	1021.424
553.884	1021.648
554.217	1022.019
554.551	1021.145
554.884	1021.231
555.218	1021.894
555.551	1022.011
555.884	1021.930
556.218	1021.710
556.551	1022.323
556.885	1021.919
557.218	1021.419
557.552	1020.971
557.885	1021.449
558.218	1021.784
558.552	1020.093
558.885	1022.101
559.219	1021.923
559.552	1021.337
559.886	1021.040
560.219	1021.991
560.552	1020.379
560.886	1021.378
561.219	1021.525
561.553	1020.439
561.886	1021.146
562.220	1020.959
562.553	1021.661
562.886	1020.674
563.220	1020.817
563.553	1021.380
563.887	1018.832
564.220	1020.471
564.554	1020.645
564.887	1020.452
565.220	1020.360
565.554	1020.923
565.887	1020.307
566.221	1020.129
566.554	1020.749
566.888	1020.182
567.221	1020.089
567.555	1019.626
567.888	1020.109
568.221	1020.469
568.555	1020.673
568.888	1020.252
569.222	1020.140
569.555	1019.430
569.889	1019.387
570.222	1019.953
570.555	1020.021
570.889	1019.147
571.222	1019.847
571.556	1020.503
571.889	1018.922
572.223	1019.935
572.556	1019.598
572.889	1020.181
573.223	1019.245
573.556	1019.003
573.890	1019.039
574.223	1018.732
574.557	1019.158
574.890	1019.756
575.223	1018.605
575.557	1019.945
575.890	1018.176
576.224	1018.476
576.557	1018.687
576.891	1018.491
577.224	1018.287
577.557	1018.740
577.891	1019.200
578.224	1019.234
578.558	1019.489
578.891	1018.549
579.225	1019.301
579.558	1018.177
579.892	1017.157
580.225	1018.461
580.558	1017.094
580.892	1017.415
581.225	1017.420
581.559	1018.228
581.892	1018.202
582.226	1017.625
582.559	1017.216
582.892	1016.922
583.226	1017.643
583.559	1016.554
583.893	1016.936
584.226	1016.276
584.560	1017.200
584.893	1017.531
585.226	1017.400
585.560	1016.364
585.893	1016.927
586.227	1015.645
586.560	1016.115
586.894	1017.014
587.227	1017.010
587.560	1016.677
587.894	1016.472
588.227	1016.147
588.561	1014.967
588.894	1015.658
589.228	1016.194
589.561	1015.694
589.894	1016.360
590.228	1015.510
590.561	1015.692
590.895	1016.716
591.228	1015.495
591.562	1015.662
591.895	1015.057
592.228	1015.586
592.562	1014.822
592.895	1015.912
593.229	1015.433
593.562	1015.355
593.896	1015.120
594.229	1014.164
594.563	1015.068
594.896	1015.005
595.229	1014.987
595.563	1014.459
595.896	1013.698
596.230	1013.740
596.563	1014.730
596.897	1013.554
597.230	1013.931
597.563	1013.963
597.897	1014.736
598.230	1015.032
598.564	1013.950
598.897	1014.464
599.231	1013.733
599.564	1013.037
599.897	1013.283
600.231	1013.544
600.564	1013.391
600.898	1013.296
601.231	1013.816
601.565	1014.065
601.898	1012.912
602.231	1012.162
602.565	1012.990
602.898	1012.546
603.232	1010.983
603.565	1012.535
603.899	1012.851
604.232	1012.177
604.565	1012.494
604.899	1011.551
605.232	1010.836
605.566	1011.504
605.899	1012.191
606.233	1011.227
606.566	1011.331
606.899	1011.853
607.233	1011.657
607.566	1010.985
607.900	1010.681
608.233	1011.715
608.567	1011.281
608.900	1009.694
609.234	1011.436
609.567	1010.635
609.900	1010.109
610.234	1011.114
610.567	1010.356
610.901	1010.133
611.234	1010.691
611.568	1008.510
611.901	1010.361
612.234	1009.201
612.568	1008.622
612.901	1010.471
613.235	1008.969
613.568	1010.667
613.902	1009.158
614.235	1008.660
614.568	1009.216
614.902	1008.538
615.235	1009.021
615.569	1008.157
615.902	1008.179
616.236	1008.182
616.569	1007.132
616.902	1008.147
617.236	1007.104
617.569	1008.055
617.903	1007.595
618.236	1007.675
618.570	1007.956
618.903	1007.798
619.236	1007.233
619.570	1006.367
619.903	1006.570
620.237	1006.363
620.570	1006.807
620.904	1006.598
621.237	1006.960
621.570	1006.969
621.904	1006.295
622.237	1006.059
622.571	1004.881
622.904	1005.958
623.238	1005.336
623.571	1005.873
623.905	1006.241
624.238	1005.674
624.571	1005.444
624.905	1004.981
625.238	1004.648
625.572	1004.877
625.905	1004.874
626.239	1002.424
626.572	1004.601
626.905	1004.026
627.239	1003.611
627.572	1003.651
627.906	1004.265
628.239	1004.473
628.573	1003.807
628.906	1003.399
629.239	1003.978
629.573	1004.235
629.906	1004.005
630.240	1003.682
630.573	1002.119
630.907	1002.376
631.240	1001.996
631.573	1003.457
631.907	1002.227
632.240	1002.932
632.574	1002.428
632.907	1001.998
633.241	1001.547
633.574	1000.546
633.907	1001.439
634.241	1001.858
634.574	1001.261
634.908	1000.016
635.241	1000.717
635.575	1001.014
635.908	1001.165
636.241	1001.002
636.575	1000.003
636.908	1000.325
637.242	999.890
637.575	999.561
637.909	999.515
638.242	1000.399
638.576	999.991
638.909	998.402
639.242	998.242
639.576	998.701
639.909	998.939
640.243	998.375
640.576	998.179
640.910	999.048
641.243	997.280
641.576	998.070
641.910	998.753
642.243	997.394
642.577	996.933
642.910	998.086
643.244	997.091
643.577	996.608
643.910	996.673
644.244	996.499
644.577	996.806
644.911	996.930
645.244	996.633
645.578	996.396
645.911	995.300
646.244	995.474
646.578	996.115
646.911	995.967
647.245	995.669
647.578	994.397
647.912	994.567
648.245	994.901
648.578	994.797
648.912	994.139
649.245	993.006
649.579	994.431
649.912	993.538
650.246	993.893
650.579	994.052
650.912	993.796
651.246	993.749
651.579	992.475
651.913	993.034
652.246	993.234
652.580	993.157
652.913	991.886
653.247	991.705
653.580	991.756
653.913	991.454
654.247	991.798
654.580	991.620
654.914	990.758
655.247	992.088
655.581	991.387
655.914	990.668
656.247	990.319
656.581	990.535
656.914	990.836
657.248	990.134
657.581	991.477
657.915	990.387
658.248	989.567
658.581	989.905
658.915	988.998
659.248	989.772
659.582	988.936
659.915	989.040
660.249	987.239
660.582	988.100
660.915	987.775
661.249	987.783
661.582	987.432
661.916	988.398
662.249	987.839
662.583	986.542
662.916	986.805
663.249	986.515
663.583	988.021
663.916	986.771
664.250	987.132
664.583	986.578
664.917	986.572
665.250	985.935
665.583	986.024
665.917	985.967
666.250	984.528
666.584	985.513
666.917	985.494
667.251	986.082
667.584	985.297
667.918	984.738
668.251	983.199
668.584	983.244
668.918	984.075
669.251	983.226
669.585	982.586
669.918	983.656
670.252	982.987
670.585	983.812
670.918	982.508
671.252	983.146
671.585	981.737
671.919	982.918
672.252	981.118
672.586	981.647
672.919	981.904
673.252	981.336
673.586	982.067
673.919	980.608
674.253	980.392
674.586	979.890
674.920	980.627
675.253	979.878
675.586	980.066
675.920	979.048
676.253	980.448
676.587	979.216
676.920	979.002
677.254	978.746
677.587	978.411
677.920	978.433
678.254	978.601
678.587	978.465
678.921	978.871
679.254	977.214
679.588	976.956
679.921	977.010
680.254	977.023
680.588	976.667
680.921	976.558
681.255	977.347
681.588	976.269
681.922	976.445
682.255	975.878
682.589	975.620
682.922	975.578
683.255	975.282
683.589	974.864
683.922	974.927
684.256	974.513
684.589	974.721
684.923	973.718
685.256	974.203
685.589	974.915
685.923	973.854
686.256	973.118
686.590	973.312
686.923	973.398
687.257	973.197
687.590	972.149
687.923	972.261
688.257	971.785
688.590	971.575
688.924	971.262
689.257	971.653
689.591	971.551
689.924	970.932
690.257	970.711
690.591	971.434
690.924	970.833
691.258	970.314
691.591	970.533
691.925	969.328
692.258	969.761
692.591	968.748
692.925	969.762
693.258	969.293
693.592	968.471
693.925	967.949
694.259	968.605
694.592	967.912
694.925	966.483
695.259	966.355
695.592	967.024
695.926	967.623
696.259	966.622
696.593	967.269
696.926	966.174
697.260	966.962
697.593	966.061
697.926	965.166
698.260	965.873
698.593	964.823
698.927	964.447
699.260	964.259
699.594	965.354
699.927	964.452
700.260	964.219
700.594	963.056
700.927	962.805
701.261	962.805
701.594	963.770
701.928	963.447
702.261	963.494
702.594	962.100
702.928	963.508
703.261	961.179
703.595	961.305
703.928	961.414
704.262	960.505
704.595	960.644
704.928	961.835
705.262	960.529
705.595	959.459
705.929	959.713
706.262	960.086
706.596	959.639
706.929	959.971
707.262	959.638
707.596	959.797
707.929	957.455
708.263	958.400
708.596	958.590
708.930	957.898
709.263	957.659
709.596	957.362
709.930	957.622
710.263	956.967
710.597	956.004
710.930	957.229
711.264	955.287
711.597	956.322
711.931	955.913
712.264	955.031
712.597	955.679
712.931	954.627
713.264	954.915
713.598	954.386
713.931	952.911
714.265	954.070
714.598	953.929
714.931	953.313
715.265	953.656
715.598	953.000
715.932	952.926
716.265	952.933
716.599	952.443
716.932	952.798
717.265	951.891
717.599	950.826
717.932	951.389
718.266	951.139
718.599	950.843
718.933	951.052
719.266	950.868
719.599	949.620
719.933	950.796
720.266	949.974
720.600	949.052
720.933	948.193
721.267	949.298
721.600	948.681
721.933	947.813
722.267	947.309
722.600	947.742
722.934	947.724
723.267	947.049
723.601	947.107
723.934	946.212
724.267	946.648
724.601	945.539
724.934	945.913
725.268	945.110
725.601	944.849
725.935	945.124
726.268	944.264
726.602	944.275
726.935	944.458
727.268	944.002
727.602	943.673
727.935	943.464
728.269	942.174
728.602	943.087
728.936	942.055
729.269	942.023
729.602	942.758
729.936	941.276
730.269	941.515
730.603	940.599
730.936	941.488
731.270	941.094
731.603	940.584
731.936	939.600
732.270	939.776
732.603	938.803
732.937	939.444
733.270	939.069
733.604	939.394
733.937	939.159
734.270	939.132
734.604	938.602
734.937	937.448
735.271	936.720
735.604	937.886
735.938	936.798
