Data from repetition_2.txt_16-47-09-365.txt Node
Date: Sun Jun 13 23:27:09 CET 2021
User: fcossio
Spectrometer: FLMS15016
Trigger mode: 0
Integration Time (sec): 3.000000E-1Scans to average: 1
Electric dark correction enabled: true
Nonlinearity correction enabled: false
Boxcar width: 0
XAxis mode: Wavelengths
Number of Pixels in Spectrum: 2048
>>>>>Begin Spectral Data<<<<<
340.154	934.653
340.487	934.257
340.821	934.923
341.154	935.972
341.488	936.373
341.821	936.597
342.155	936.040
342.488	936.972
342.821	936.210
343.155	937.571
343.488	937.680
343.822	936.960
344.155	937.075
344.489	938.278
344.822	938.651
345.155	939.308
345.489	939.381
345.822	938.769
346.156	940.394
346.489	939.321
346.823	939.286
347.156	940.166
347.490	940.657
347.823	940.871
348.156	941.052
348.490	941.257
348.823	941.346
349.157	941.916
349.490	941.108
349.824	942.291
350.157	941.337
350.490	942.475
350.824	943.256
351.157	943.062
351.491	943.093
351.824	943.608
352.158	944.118
352.491	945.213
352.824	943.887
353.158	945.113
353.491	945.260
353.825	944.449
354.158	944.447
354.492	945.954
354.825	946.661
355.158	946.318
355.492	946.526
355.825	947.126
356.159	946.493
356.492	948.174
356.826	947.070
357.159	948.302
357.492	948.379
357.826	947.698
358.159	949.085
358.493	948.491
358.826	949.616
359.160	948.720
359.493	949.054
359.826	949.255
360.160	949.435
360.493	949.832
360.827	951.538
361.160	951.127
361.494	950.864
361.827	950.610
362.161	951.958
362.494	951.050
362.827	951.795
363.161	951.280
363.494	952.674
363.828	951.539
364.161	953.870
364.495	953.406
364.828	953.425
365.161	954.135
365.495	953.325
365.828	954.727
366.162	954.676
366.495	955.085
366.829	955.565
367.162	954.474
367.495	955.437
367.829	955.940
368.162	954.804
368.496	955.648
368.829	955.773
369.163	956.632
369.496	956.583
369.829	956.329
370.163	957.590
370.496	958.237
370.830	957.650
371.163	957.840
371.497	958.126
371.830	958.654
372.163	958.668
372.497	958.622
372.830	959.402
373.164	959.545
373.497	960.093
373.831	960.700
374.164	959.023
374.497	958.618
374.831	960.641
375.164	960.438
375.498	960.843
375.831	962.497
376.165	961.739
376.498	960.905
376.832	963.129
377.165	962.162
377.498	963.750
377.832	961.271
378.165	962.817
378.499	963.137
378.832	962.906
379.166	962.895
379.499	963.188
379.832	964.139
380.166	963.650
380.499	963.018
380.833	964.293
381.166	964.415
381.500	964.221
381.833	964.779
382.166	964.833
382.500	965.901
382.833	966.234
383.167	965.581
383.500	965.897
383.834	966.825
384.167	966.691
384.500	965.516
384.834	967.500
385.167	967.821
385.501	966.901
385.834	967.493
386.168	967.294
386.501	969.195
386.834	968.614
387.168	968.723
387.501	968.678
387.835	969.442
388.168	968.833
388.502	969.776
388.835	969.134
389.168	968.672
389.502	969.863
389.835	970.957
390.169	970.362
390.502	970.664
390.836	970.828
391.169	971.452
391.503	970.518
391.836	969.433
392.169	972.033
392.503	971.008
392.836	971.372
393.170	971.912
393.503	971.578
393.837	972.748
394.170	973.174
394.503	972.993
394.837	973.873
395.170	972.615
395.504	973.269
395.837	973.660
396.171	973.153
396.504	973.233
396.837	975.263
397.171	974.132
397.504	973.839
397.838	975.595
398.171	974.581
398.505	975.412
398.838	975.460
399.171	974.904
399.505	975.519
399.838	975.309
400.172	976.328
400.505	975.859
400.839	975.581
401.172	977.279
401.505	976.433
401.839	976.517
402.172	977.771
402.506	977.131
402.839	977.459
403.173	977.556
403.506	977.481
403.839	979.101
404.173	978.013
404.506	979.988
404.840	978.341
405.173	979.472
405.507	979.401
405.840	979.462
406.174	979.142
406.507	979.243
406.840	980.027
407.174	980.591
407.507	979.842
407.841	980.985
408.174	981.135
408.508	979.991
408.841	980.338
409.174	980.916
409.508	981.736
409.841	981.411
410.175	982.025
410.508	981.302
410.842	981.547
411.175	982.093
411.508	982.657
411.842	983.192
412.175	982.908
412.509	982.174
412.842	983.297
413.176	982.921
413.509	983.225
413.842	982.779
414.176	983.799
414.509	984.029
414.843	983.901
415.176	983.769
415.510	984.489
415.843	985.434
416.176	985.335
416.510	984.710
416.843	985.734
417.177	985.881
417.510	985.865
417.844	985.469
418.177	986.181
418.510	986.017
418.844	985.844
419.177	987.005
419.511	986.937
419.844	985.776
420.178	986.638
420.511	986.465
420.845	987.285
421.178	987.419
421.511	988.705
421.845	987.762
422.178	987.914
422.512	987.525
422.845	989.094
423.179	988.719
423.512	988.356
423.845	989.478
424.179	988.149
424.512	988.979
424.846	989.434
425.179	988.828
425.513	990.014
425.846	988.927
426.179	990.214
426.513	990.271
426.846	989.865
427.180	991.627
427.513	991.322
427.847	990.216
428.180	991.616
428.513	991.134
428.847	991.421
429.180	991.574
429.514	991.920
429.847	992.073
430.181	991.624
430.514	992.630
430.847	991.419
431.181	992.609
431.514	992.633
431.848	992.473
432.181	992.908
432.515	993.535
432.848	993.013
433.181	992.828
433.515	994.071
433.848	993.477
434.182	993.359
434.515	993.453
434.849	993.946
435.182	994.479
435.516	993.936
435.849	995.510
436.182	993.614
436.516	994.905
436.849	994.601
437.183	995.525
437.516	994.575
437.850	995.055
438.183	994.752
438.516	996.444
438.850	994.373
439.183	995.219
439.517	995.701
439.850	996.167
440.184	996.437
440.517	995.987
440.850	994.986
441.184	997.003
441.517	996.790
441.851	996.578
442.184	996.521
442.518	997.086
442.851	997.311
443.184	997.530
443.518	997.452
443.851	997.191
444.185	997.640
444.518	997.817
444.852	997.823
445.185	997.643
445.518	997.605
445.852	997.843
446.185	998.611
446.519	997.502
446.852	999.003
447.186	999.041
447.519	997.940
447.852	999.224
448.186	998.949
448.519	999.260
448.853	999.177
449.186	998.976
449.520	999.800
449.853	1000.182
450.187	1000.425
450.520	1000.598
450.853	1000.101
451.187	999.766
451.520	1000.548
451.854	1001.280
452.187	1000.125
452.521	1000.827
452.854	1000.420
453.187	1001.080
453.521	1001.052
453.854	1001.588
454.188	1001.178
454.521	1000.431
454.855	1001.217
455.188	1001.714
455.521	1001.780
455.855	1002.805
456.188	1002.469
456.522	1001.523
456.855	1002.182
457.189	1001.769
457.522	1002.494
457.855	1002.169
458.189	1003.198
458.522	1002.378
458.856	1003.361
459.189	1003.748
459.523	1003.805
459.856	1002.874
460.189	1002.819
460.523	1003.795
460.856	1003.367
461.190	1004.209
461.523	1003.178
461.857	1004.069
462.190	1004.149
462.523	1004.045
462.857	1003.283
463.190	1003.780
463.524	1005.678
463.857	1004.298
464.191	1004.034
464.524	1003.897
464.858	1004.186
465.191	1004.543
465.524	1004.626
465.858	1004.603
466.191	1004.888
466.525	1005.543
466.858	1005.054
467.192	1005.000
467.525	1006.320
467.858	1004.484
468.192	1005.495
468.525	1006.439
468.859	1005.901
469.192	1005.901
469.526	1005.723
469.859	1007.215
470.192	1006.869
470.526	1007.031
470.859	1006.216
471.193	1006.726
471.526	1007.287
471.860	1006.175
472.193	1007.298
472.526	1005.859
472.860	1007.261
473.193	1006.430
473.527	1006.156
473.860	1007.453
474.194	1006.398
474.527	1008.123
474.860	1007.965
475.194	1007.544
475.527	1007.664
475.861	1007.691
476.194	1008.143
476.528	1007.374
476.861	1007.750
477.194	1008.177
477.528	1008.762
477.861	1008.901
478.195	1009.288
478.528	1008.624
478.862	1008.340
479.195	1008.155
479.529	1008.174
479.862	1009.007
480.195	1009.397
480.529	1008.553
480.862	1009.411
481.196	1008.737
481.529	1009.139
481.863	1010.153
482.196	1009.093
482.529	1009.603
482.863	1009.568
483.196	1010.023
483.530	1008.995
483.863	1009.997
484.197	1009.443
484.530	1009.562
484.863	1009.977
485.197	1010.779
485.530	1009.495
485.864	1009.819
486.197	1010.456
486.531	1010.131
486.864	1011.137
487.197	1010.812
487.531	1010.238
487.864	1010.979
488.198	1010.792
488.531	1010.273
488.865	1011.077
489.198	1010.890
489.531	1011.232
489.865	1011.427
490.198	1010.538
490.532	1010.707
490.865	1011.067
491.199	1011.719
491.532	1011.313
491.865	1011.374
492.199	1011.051
492.532	1011.152
492.866	1011.331
493.199	1011.404
493.533	1011.739
493.866	1011.966
494.200	1011.744
494.533	1011.378
494.866	1012.437
495.200	1011.902
495.533	1012.154
495.867	1013.190
496.200	1012.039
496.534	1012.652
496.867	1012.574
497.200	1011.793
497.534	1012.564
497.867	1012.705
498.201	1012.914
498.534	1012.806
498.868	1012.598
499.201	1012.362
499.534	1012.236
499.868	1012.579
500.201	1012.602
500.535	1012.233
500.868	1011.680
501.202	1012.874
501.535	1012.820
501.868	1013.393
502.202	1013.415
502.535	1013.452
502.869	1013.927
503.202	1013.287
503.536	1013.298
503.869	1012.685
504.202	1013.183
504.536	1012.848
504.869	1012.981
505.203	1012.723
505.536	1013.964
505.870	1014.289
506.203	1013.430
506.536	1013.433
506.870	1014.519
507.203	1014.620
507.537	1014.101
507.870	1014.353
508.204	1013.783
508.537	1014.100
508.871	1013.737
509.204	1012.882
509.537	1014.422
509.871	1014.412
510.204	1014.036
510.538	1014.665
510.871	1014.196
511.205	1014.325
511.538	1014.116
511.871	1013.957
512.205	1014.739
512.538	1014.135
512.872	1015.173
513.205	1014.320
513.539	1012.834
513.872	1014.456
514.205	1014.331
514.539	1014.228
514.872	1014.245
515.206	1014.903
515.539	1014.613
515.873	1015.898
516.206	1014.553
516.539	1015.079
516.873	1015.108
517.206	1015.458
517.540	1015.552
517.873	1014.795
518.207	1015.216
518.540	1014.874
518.873	1015.064
519.207	1015.161
519.540	1014.436
519.874	1015.411
520.207	1014.872
520.541	1014.321
520.874	1015.242
521.207	1015.095
521.541	1014.844
521.874	1015.335
522.208	1015.322
522.541	1015.542
522.875	1015.132
523.208	1015.186
523.542	1014.958
523.875	1015.253
524.208	1015.402
524.542	1015.002
524.875	1016.460
525.209	1015.845
525.542	1016.031
525.876	1015.012
526.209	1015.478
526.542	1014.727
526.876	1015.385
527.209	1015.289
527.543	1014.985
527.876	1014.773
528.210	1015.790
528.543	1015.734
528.876	1014.913
529.210	1016.259
529.543	1015.340
529.877	1015.565
530.210	1015.401
530.544	1015.048
530.877	1014.696
531.210	1015.089
531.544	1015.453
531.877	1015.469
532.211	1015.324
532.544	1015.761
532.878	1015.498
533.211	1015.905
533.544	1014.887
533.878	1015.058
534.211	1015.534
534.545	1016.011
534.878	1015.717
535.212	1015.859
535.545	1015.715
535.878	1015.191
536.212	1016.779
536.545	1015.296
536.879	1015.521
537.212	1015.806
537.546	1016.192
537.879	1015.535
538.213	1015.341
538.546	1016.220
538.879	1016.196
539.213	1015.856
539.546	1015.115
539.880	1015.111
540.213	1014.670
540.547	1016.256
540.880	1014.892
541.213	1015.502
541.547	1015.377
541.880	1015.216
542.214	1014.935
542.547	1015.418
542.881	1015.664
543.214	1015.924
543.547	1015.109
543.881	1015.535
544.214	1015.009
544.548	1014.813
544.881	1015.457
545.215	1014.422
545.548	1016.396
545.881	1015.589
546.215	1015.719
546.548	1015.793
546.882	1015.352
547.215	1014.887
547.549	1015.150
547.882	1015.451
548.215	1015.877
548.549	1015.900
548.882	1015.216
549.216	1015.037
549.549	1015.222
549.883	1015.360
550.216	1014.282
550.549	1015.408
550.883	1015.212
551.216	1015.413
551.550	1014.239
551.883	1014.368
552.217	1015.650
552.550	1015.405
552.884	1014.633
553.217	1013.753
553.550	1015.070
553.884	1015.204
554.217	1014.856
554.551	1014.464
554.884	1014.507
555.218	1014.315
555.551	1014.924
555.884	1014.179
556.218	1014.807
556.551	1015.636
556.885	1014.849
557.218	1014.493
557.552	1014.369
557.885	1013.981
558.218	1013.855
558.552	1014.095
558.885	1014.163
559.219	1014.640
559.552	1015.036
559.886	1014.569
560.219	1014.346
560.552	1014.812
560.886	1013.743
561.219	1014.128
561.553	1012.364
561.886	1013.948
562.220	1013.975
562.553	1014.001
562.886	1014.070
563.220	1013.969
563.553	1013.368
563.887	1013.900
564.220	1013.928
564.554	1013.409
564.887	1012.952
565.220	1013.430
565.554	1013.901
565.887	1013.667
566.221	1013.828
566.554	1014.119
566.888	1013.738
567.221	1014.299
567.555	1013.757
567.888	1013.473
568.221	1014.339
568.555	1013.437
568.888	1013.061
569.222	1013.224
569.555	1013.072
569.889	1014.001
570.222	1013.056
570.555	1012.600
570.889	1011.598
571.222	1011.826
571.556	1013.374
571.889	1013.061
572.223	1012.960
572.556	1012.747
572.889	1012.396
573.223	1012.614
573.556	1013.131
573.890	1012.572
574.223	1011.947
574.557	1011.775
574.890	1011.517
575.223	1013.042
575.557	1011.319
575.890	1012.338
576.224	1012.622
576.557	1012.003
576.891	1012.059
577.224	1011.496
577.557	1011.764
577.891	1011.397
578.224	1012.288
578.558	1012.241
578.891	1011.691
579.225	1011.150
579.558	1010.633
579.892	1011.135
580.225	1010.857
580.558	1011.055
580.892	1010.723
581.225	1010.598
581.559	1010.511
581.892	1010.762
582.226	1010.720
582.559	1011.048
582.892	1011.855
583.226	1010.601
583.559	1009.363
583.893	1011.530
584.226	1010.197
584.560	1010.473
584.893	1010.573
585.226	1009.776
585.560	1009.712
585.893	1009.873
586.227	1010.048
586.560	1009.726
586.894	1009.633
587.227	1009.721
587.560	1009.587
587.894	1009.856
588.227	1009.925
588.561	1008.494
588.894	1009.275
589.228	1009.713
589.561	1008.708
589.894	1009.070
590.228	1008.013
590.561	1009.175
590.895	1008.919
591.228	1009.083
591.562	1009.237
591.895	1008.304
592.228	1009.173
592.562	1008.869
592.895	1007.942
593.229	1008.385
593.562	1007.725
593.896	1007.786
594.229	1008.637
594.563	1008.106
594.896	1008.459
595.229	1007.653
595.563	1007.844
595.896	1007.683
596.230	1007.220
596.563	1008.077
596.897	1006.446
597.230	1008.593
597.563	1007.143
597.897	1007.349
598.230	1005.772
598.564	1006.678
598.897	1006.406
599.231	1006.265
599.564	1006.593
599.897	1006.457
600.231	1007.116
600.564	1005.146
600.898	1006.314
601.231	1006.770
601.565	1006.063
601.898	1007.179
602.231	1005.114
602.565	1005.771
602.898	1004.462
603.232	1006.428
603.565	1006.875
603.899	1006.145
604.232	1006.240
604.565	1005.747
604.899	1004.663
605.232	1005.560
605.566	1004.931
605.899	1005.518
606.233	1004.099
606.566	1005.262
606.899	1004.548
607.233	1004.902
607.566	1004.350
607.900	1003.692
608.233	1004.303
608.567	1004.669
608.900	1004.042
609.234	1003.956
609.567	1003.910
609.900	1004.424
610.234	1003.483
610.567	1003.719
610.901	1003.278
611.234	1003.448
611.568	1003.028
611.901	1003.048
612.234	1002.443
612.568	1002.632
612.901	1003.089
613.235	1002.410
613.568	1002.872
613.902	1003.494
614.235	1001.609
614.568	1002.955
614.902	1001.079
615.235	1001.641
615.569	1001.901
615.902	1001.168
616.236	1000.776
616.569	1002.185
616.902	1001.179
617.236	1000.737
617.569	1000.834
617.903	1000.643
618.236	999.984
618.570	1000.425
618.903	1000.211
619.236	1000.509
619.570	1000.422
619.903	1001.516
620.237	1000.437
620.570	1000.076
620.904	1000.093
621.237	999.299
621.570	999.751
621.904	999.869
622.237	999.242
622.571	998.289
622.904	999.533
623.238	998.997
623.571	999.124
623.905	999.412
624.238	998.505
624.571	998.280
624.905	998.814
625.238	998.116
625.572	998.781
625.905	997.710
626.239	997.132
626.572	996.890
626.905	997.411
627.239	997.327
627.572	998.253
627.906	997.143
628.239	997.464
628.573	996.377
628.906	996.137
629.239	996.339
629.573	996.926
629.906	997.191
630.240	996.248
630.573	997.028
630.907	996.399
631.240	994.337
631.573	995.878
631.907	996.574
632.240	994.578
632.574	995.372
632.907	994.211
633.241	995.736
633.574	994.110
633.907	993.881
634.241	995.628
634.574	994.070
634.908	994.577
635.241	994.327
635.575	994.939
635.908	993.340
636.241	994.197
636.575	994.168
636.908	994.281
637.242	993.175
637.575	993.022
637.909	993.317
638.242	992.153
638.576	993.069
638.909	991.656
639.242	992.582
639.576	992.442
639.909	992.224
640.243	991.034
640.576	992.454
640.910	991.177
641.243	991.197
641.576	990.475
641.910	991.265
642.243	991.693
642.577	991.137
642.910	990.266
643.244	989.891
643.577	989.677
643.910	989.833
644.244	990.105
644.577	989.392
644.911	989.818
645.244	989.495
645.578	989.303
645.911	989.669
646.244	989.472
646.578	988.372
646.911	989.538
647.245	987.746
647.578	989.093
647.912	988.630
648.245	987.678
648.578	987.356
648.912	988.696
649.245	986.898
649.579	987.746
649.912	987.337
650.246	987.532
650.579	986.768
650.912	987.848
651.246	987.347
651.579	985.768
651.913	986.055
652.246	986.405
652.580	986.400
652.913	985.571
653.247	985.766
653.580	986.044
653.913	984.870
654.247	985.915
654.580	985.566
654.914	985.114
655.247	984.702
655.581	983.922
655.914	984.871
656.247	985.162
656.581	983.767
656.914	984.360
657.248	983.803
657.581	983.469
657.915	983.483
658.248	982.888
658.581	983.300
658.915	982.870
659.248	982.905
659.582	981.627
659.915	982.632
660.249	982.289
660.582	981.700
660.915	981.551
661.249	981.449
661.582	981.705
661.916	981.532
662.249	981.105
662.583	982.183
662.916	980.178
663.249	980.555
663.583	979.970
663.916	980.351
664.250	979.650
664.583	979.765
664.917	979.687
665.250	979.438
665.583	978.904
665.917	979.792
666.250	978.713
666.584	979.348
666.917	979.147
667.251	978.385
667.584	977.409
667.918	977.485
668.251	977.132
668.584	977.716
668.918	977.800
669.251	976.536
669.585	976.692
669.918	976.239
670.252	976.326
670.585	976.100
670.918	976.387
671.252	975.487
671.585	975.044
671.919	975.235
672.252	975.168
672.586	974.768
672.919	975.358
673.252	975.320
673.586	975.254
673.919	974.659
674.253	974.855
674.586	974.314
674.920	973.868
675.253	974.158
675.586	973.144
675.920	973.564
676.253	973.111
676.587	973.018
676.920	971.660
677.254	971.962
677.587	972.815
677.920	972.759
678.254	971.533
678.587	971.268
678.921	971.240
679.254	971.143
679.588	972.644
679.921	971.171
680.254	970.983
680.588	969.347
680.921	969.748
681.255	970.019
681.588	970.404
681.922	969.700
682.255	969.058
682.589	969.688
682.922	969.892
683.255	968.239
683.589	968.490
683.922	967.986
684.256	968.073
684.589	968.011
684.923	967.984
685.256	967.091
685.589	968.292
685.923	966.786
686.256	967.303
686.590	967.003
686.923	966.030
687.257	965.841
687.590	966.340
687.923	965.774
688.257	965.319
688.590	964.657
688.924	965.697
689.257	965.064
689.591	964.384
689.924	965.311
690.257	964.110
690.591	964.841
690.924	964.365
691.258	963.824
691.591	963.875
691.925	963.836
692.258	962.735
692.591	961.691
692.925	961.869
693.258	961.565
693.592	963.090
693.925	961.929
694.259	961.410
694.592	961.834
694.925	961.363
695.259	961.469
695.592	959.849
695.926	960.585
696.259	960.244
696.593	960.351
696.926	960.532
697.260	960.379
697.593	960.237
697.926	959.245
698.260	958.841
698.593	959.452
698.927	957.993
699.260	959.132
699.594	959.095
699.927	957.208
700.260	958.116
700.594	957.849
700.927	956.922
701.261	957.538
701.594	957.075
701.928	956.454
702.261	955.860
702.594	955.507
702.928	956.183
703.261	956.569
703.595	955.204
703.928	955.597
704.262	955.563
704.595	953.779
704.928	954.824
705.262	953.220
705.595	953.561
705.929	954.560
706.262	952.963
706.596	953.171
706.929	953.197
707.262	953.007
707.596	951.807
707.929	952.265
708.263	952.106
708.596	951.349
708.930	951.977
709.263	950.546
709.596	951.200
709.930	950.792
710.263	950.305
710.597	950.795
710.930	949.598
711.264	949.665
711.597	949.282
711.931	949.143
712.264	949.557
712.597	948.220
712.931	947.847
713.264	948.749
713.598	947.857
713.931	947.607
714.265	948.127
714.598	947.510
714.931	947.073
715.265	946.471
715.598	946.466
715.932	946.181
716.265	946.287
716.599	945.516
716.932	945.836
717.265	945.903
717.599	944.637
717.932	944.715
718.266	944.155
718.599	943.859
718.933	943.637
719.266	943.665
719.599	942.800
719.933	942.625
720.266	943.140
720.600	942.078
720.933	942.431
721.267	942.894
721.600	942.292
721.933	941.817
722.267	941.388
722.600	940.745
722.934	940.745
723.267	941.013
723.601	940.889
723.934	940.173
724.267	939.396
724.601	940.107
724.934	938.833
725.268	939.476
725.601	938.427
725.935	938.703
726.268	938.306
726.602	938.911
726.935	937.733
727.268	936.833
727.602	936.751
727.935	937.428
728.269	936.461
728.602	936.307
728.936	936.289
729.269	935.970
729.602	936.182
729.936	934.634
730.269	933.672
730.603	935.066
730.936	934.661
731.270	933.734
731.603	934.008
731.936	934.240
732.270	934.080
732.603	933.025
732.937	933.718
733.270	933.112
733.604	932.346
733.937	932.189
734.270	932.330
734.604	931.888
734.937	931.014
735.271	931.102
735.604	930.850
735.938	930.584
736.271	930.171
736.604	929.957
736.938	930.086
737.271	930.006
737.605	928.665
737.938	928.718
