Data from repetition_4.txt_16-47-09-365.txt Node
Date: Sun Jun 13 23:27:09 CET 2021
User: fcossio
Spectrometer: FLMS15016
Trigger mode: 0
Integration Time (sec): 3.000000E-1Scans to average: 1
Electric dark correction enabled: true
Nonlinearity correction enabled: false
Boxcar width: 0
XAxis mode: Wavelengths
Number of Pixels in Spectrum: 2048
>>>>>Begin Spectral Data<<<<<
340.154	933.099
340.487	933.357
340.821	934.044
341.154	934.619
341.488	934.376
341.821	934.364
342.155	934.708
342.488	935.297
342.821	936.166
343.155	935.080
343.488	935.564
343.822	935.724
344.155	937.394
344.489	936.759
344.822	937.020
345.155	937.770
345.489	937.893
345.822	937.921
346.156	938.653
346.489	938.313
346.823	939.126
347.156	939.106
347.490	939.150
347.823	939.736
348.156	939.947
348.490	939.898
348.823	940.383
349.157	940.562
349.490	939.598
349.824	940.259
350.157	940.903
350.490	941.454
350.824	941.960
351.157	941.847
351.491	942.137
351.824	941.687
352.158	942.737
352.491	942.340
352.824	942.740
353.158	942.971
353.491	943.884
353.825	943.587
354.158	944.083
354.492	944.017
354.825	944.388
355.158	943.681
355.492	944.269
355.825	946.130
356.159	946.273
356.492	947.421
356.826	945.569
357.159	945.973
357.492	947.536
357.826	946.517
358.159	946.711
358.493	946.981
358.826	948.296
359.160	947.742
359.493	948.806
359.826	948.345
360.160	948.942
360.493	949.050
360.827	948.485
361.160	949.444
361.494	950.264
361.827	949.856
362.161	950.459
362.494	950.712
362.827	950.792
363.161	950.105
363.494	951.038
363.828	951.120
364.161	950.846
364.495	951.732
364.828	951.098
365.161	951.508
365.495	952.084
365.828	953.073
366.162	953.293
366.495	952.964
366.829	952.204
367.162	953.394
367.495	953.077
367.829	953.690
368.162	954.741
368.496	954.880
368.829	954.645
369.163	954.983
369.496	954.861
369.829	955.871
370.163	955.797
370.496	955.646
370.830	956.443
371.163	955.835
371.497	957.121
371.830	956.600
372.163	957.721
372.497	957.948
372.830	958.170
373.164	958.674
373.497	958.114
373.831	958.273
374.164	957.509
374.497	959.113
374.831	958.989
375.164	959.767
375.498	958.859
375.831	960.535
376.165	959.498
376.498	959.901
376.832	960.638
377.165	960.640
377.498	961.568
377.832	960.557
378.165	961.138
378.499	961.488
378.832	962.325
379.166	962.774
379.499	962.005
379.832	962.269
380.166	963.205
380.499	962.070
380.833	962.767
381.166	962.610
381.500	962.690
381.833	963.875
382.166	964.380
382.500	964.119
382.833	964.052
383.167	964.202
383.500	964.055
383.834	965.290
384.167	964.163
384.500	965.471
384.834	965.257
385.167	965.584
385.501	966.700
385.834	966.709
386.168	966.361
386.501	966.437
386.834	966.721
387.168	967.263
387.501	967.334
387.835	967.985
388.168	967.560
388.502	967.669
388.835	967.846
389.168	968.156
389.502	967.773
389.835	969.260
390.169	968.312
390.502	969.221
390.836	969.133
391.169	969.822
391.503	968.847
391.836	969.725
392.169	970.277
392.503	970.722
392.836	969.951
393.170	971.279
393.503	970.650
393.837	971.381
394.170	970.765
394.503	971.498
394.837	971.109
395.170	972.162
395.504	971.849
395.837	972.300
396.171	973.299
396.504	972.251
396.837	972.230
397.171	973.681
397.504	973.320
397.838	973.061
398.171	973.910
398.505	973.649
398.838	973.670
399.171	974.521
399.505	974.770
399.838	974.514
400.172	975.758
400.505	975.217
400.839	975.147
401.172	975.883
401.505	974.319
401.839	975.478
402.172	975.442
402.506	975.993
402.839	976.043
403.173	976.530
403.506	977.800
403.839	976.117
404.173	976.331
404.506	976.307
404.840	977.168
405.173	977.474
405.507	977.945
405.840	979.028
406.174	977.706
406.507	977.683
406.840	978.564
407.174	979.237
407.507	979.660
407.841	979.783
408.174	978.831
408.508	979.272
408.841	979.682
409.174	978.979
409.508	979.754
409.841	979.035
410.175	979.892
410.508	980.204
410.842	980.474
411.175	980.320
411.508	981.002
411.842	981.535
412.175	980.830
412.509	981.318
412.842	982.037
413.176	982.179
413.509	982.101
413.842	982.154
414.176	981.822
414.509	982.782
414.843	982.831
415.176	982.682
415.510	982.336
415.843	983.555
416.176	984.703
416.510	983.512
416.843	983.941
417.177	983.628
417.510	984.307
417.844	984.382
418.177	984.420
418.510	985.485
418.844	985.041
419.177	985.173
419.511	985.064
419.844	986.282
420.178	986.131
420.511	984.822
420.845	986.027
421.178	985.499
421.511	986.198
421.845	985.570
422.178	986.639
422.512	986.293
422.845	986.081
423.179	986.863
423.512	987.502
423.845	986.875
424.179	987.087
424.512	987.844
424.846	987.513
425.179	988.128
425.513	987.373
425.846	988.909
426.179	988.285
426.513	988.310
426.846	988.544
427.180	989.482
427.513	988.395
427.847	988.657
428.180	990.331
428.513	988.419
428.847	990.335
429.180	989.155
429.514	990.441
429.847	989.518
430.181	989.423
430.514	991.706
430.847	990.143
431.181	990.406
431.514	991.160
431.848	991.292
432.181	991.000
432.515	992.065
432.848	991.044
433.181	991.576
433.515	991.852
433.848	991.977
434.182	991.349
434.515	991.834
434.849	991.572
435.182	992.300
435.516	993.354
435.849	992.629
436.182	993.434
436.516	992.758
436.849	992.485
437.183	993.945
437.516	993.531
437.850	992.737
438.183	993.614
438.516	993.506
438.850	993.862
439.183	994.353
439.517	994.554
439.850	993.438
440.184	995.234
440.517	994.402
440.850	994.412
441.184	995.601
441.517	994.810
441.851	995.715
442.184	995.897
442.518	996.446
442.851	995.982
443.184	995.465
443.518	995.782
443.851	995.764
444.185	996.827
444.518	996.227
444.852	995.742
445.185	997.026
445.518	996.726
445.852	996.783
446.185	997.437
446.519	997.166
446.852	996.523
447.186	997.046
447.519	996.927
447.852	998.404
448.186	998.180
448.519	997.609
448.853	997.742
449.186	997.455
449.520	998.483
449.853	998.243
450.187	999.083
450.520	998.027
450.853	997.679
451.187	999.099
451.520	999.609
451.854	998.886
452.187	999.076
452.521	999.139
452.854	999.744
453.187	999.446
453.521	1000.180
453.854	999.336
454.188	1000.709
454.521	998.823
454.855	999.521
455.188	1000.898
455.521	1000.477
455.855	1000.877
456.188	999.266
456.522	1000.714
456.855	1000.386
457.189	1000.971
457.522	1001.147
457.855	1000.692
458.189	1000.935
458.522	1001.365
458.856	1001.757
459.189	1001.070
459.523	1001.631
459.856	1001.969
460.189	1001.230
460.523	1001.341
460.856	1002.134
461.190	1002.570
461.523	1001.810
461.857	1002.332
462.190	1002.143
462.523	1002.907
462.857	1002.522
463.190	1002.522
463.524	1002.413
463.857	1003.085
464.191	1003.056
464.524	1003.005
464.858	1003.117
465.191	1003.179
465.524	1003.242
465.858	1004.159
466.191	1002.748
466.525	1003.949
466.858	1003.534
467.192	1003.830
467.525	1004.032
467.858	1003.572
468.192	1004.760
468.525	1005.017
468.859	1003.527
469.192	1004.454
469.526	1004.704
469.859	1005.122
470.192	1005.283
470.526	1004.928
470.859	1004.556
471.193	1006.002
471.526	1005.761
471.860	1005.214
472.193	1006.242
472.526	1004.898
472.860	1005.607
473.193	1005.535
473.527	1005.957
473.860	1005.965
474.194	1006.655
474.527	1005.237
474.860	1005.654
475.194	1006.468
475.527	1005.863
475.861	1006.236
476.194	1005.886
476.528	1006.595
476.861	1006.543
477.194	1006.999
477.528	1006.548
477.861	1007.399
478.195	1006.384
478.528	1006.765
478.862	1008.108
479.195	1007.589
479.529	1006.761
479.862	1007.018
480.195	1007.647
480.529	1007.679
480.862	1007.903
481.196	1008.068
481.529	1009.644
481.863	1008.047
482.196	1008.006
482.529	1007.560
482.863	1007.599
483.196	1009.194
483.530	1008.467
483.863	1008.698
484.197	1009.180
484.530	1008.580
484.863	1009.667
485.197	1008.278
485.530	1009.162
485.864	1009.187
486.197	1008.583
486.531	1009.197
486.864	1008.441
487.197	1008.412
487.531	1009.779
487.864	1009.033
488.198	1009.590
488.531	1009.925
488.865	1010.062
489.198	1009.378
489.531	1009.419
489.865	1009.992
490.198	1009.209
490.532	1010.344
490.865	1010.911
491.199	1009.544
491.532	1009.571
491.865	1009.329
492.199	1009.330
492.532	1010.977
492.866	1009.956
493.199	1010.809
493.533	1009.810
493.866	1010.251
494.200	1009.911
494.533	1009.589
494.866	1010.646
495.200	1010.239
495.533	1010.567
495.867	1011.237
496.200	1011.257
496.534	1010.354
496.867	1011.378
497.200	1010.883
497.534	1010.449
497.867	1011.480
498.201	1010.625
498.534	1010.402
498.868	1011.108
499.201	1010.134
499.534	1010.954
499.868	1011.809
500.201	1011.851
500.535	1011.882
500.868	1011.187
501.202	1011.122
501.535	1011.038
501.868	1011.489
502.202	1010.891
502.535	1011.936
502.869	1011.723
503.202	1012.304
503.536	1011.408
503.869	1011.799
504.202	1012.013
504.536	1012.169
504.869	1012.005
505.203	1011.705
505.536	1011.716
505.870	1012.426
506.203	1012.267
506.536	1011.903
506.870	1012.590
507.203	1011.497
507.537	1012.325
507.870	1012.566
508.204	1012.423
508.537	1011.832
508.871	1013.051
509.204	1012.757
509.537	1012.515
509.871	1012.437
510.204	1013.110
510.538	1013.308
510.871	1012.674
511.205	1013.300
511.538	1012.107
511.871	1013.403
512.205	1012.555
512.538	1013.813
512.872	1013.334
513.205	1013.398
513.539	1012.625
513.872	1013.487
514.205	1013.647
514.539	1013.134
514.872	1013.695
515.206	1013.889
515.539	1013.566
515.873	1013.802
516.206	1013.987
516.539	1012.923
516.873	1013.557
517.206	1014.244
517.540	1013.484
517.873	1013.693
518.207	1013.407
518.540	1012.842
518.873	1012.756
519.207	1014.010
519.540	1014.497
519.874	1013.079
520.207	1013.729
520.541	1012.991
520.874	1012.811
521.207	1014.319
521.541	1014.476
521.874	1014.028
522.208	1012.447
522.541	1014.215
522.875	1013.647
523.208	1013.322
523.542	1013.787
523.875	1014.443
524.208	1014.005
524.542	1013.974
524.875	1014.342
525.209	1014.017
525.542	1014.158
525.876	1013.491
526.209	1014.479
526.542	1013.557
526.876	1013.670
527.209	1014.003
527.543	1013.042
527.876	1014.200
528.210	1013.989
528.543	1014.886
528.876	1013.788
529.210	1014.278
529.543	1014.969
529.877	1014.119
530.210	1014.851
530.544	1014.699
530.877	1013.665
531.210	1013.923
531.544	1014.780
531.877	1014.841
532.211	1014.146
532.544	1014.332
532.878	1014.465
533.211	1014.393
533.544	1013.741
533.878	1014.438
534.211	1014.240
534.545	1014.960
534.878	1014.483
535.212	1014.027
535.545	1014.029
535.878	1013.475
536.212	1013.481
536.545	1013.372
536.879	1014.230
537.212	1015.238
537.546	1013.576
537.879	1014.765
538.213	1014.568
538.546	1013.532
538.879	1014.625
539.213	1013.781
539.546	1013.981
539.880	1013.609
540.213	1014.353
540.547	1014.116
540.880	1013.694
541.213	1014.470
541.547	1013.467
541.880	1013.116
542.214	1014.722
542.547	1013.873
542.881	1013.711
543.214	1015.056
543.547	1013.845
543.881	1014.369
544.214	1014.319
544.548	1013.307
544.881	1013.958
545.215	1013.567
545.548	1013.157
545.881	1013.904
546.215	1013.956
546.548	1014.608
546.882	1013.072
547.215	1014.116
547.549	1013.208
547.882	1013.921
548.215	1014.272
548.549	1014.067
548.882	1013.984
549.216	1012.749
549.549	1013.436
549.883	1013.426
550.216	1013.062
550.549	1013.661
550.883	1013.309
551.216	1014.256
551.550	1014.248
551.883	1013.664
552.217	1013.029
552.550	1012.800
552.884	1013.622
553.217	1013.241
553.550	1013.426
553.884	1013.028
554.217	1013.352
554.551	1013.949
554.884	1012.996
555.218	1013.443
555.551	1013.541
555.884	1014.579
556.218	1013.006
556.551	1013.507
556.885	1012.597
557.218	1013.001
557.552	1013.372
557.885	1013.783
558.218	1012.965
558.552	1013.384
558.885	1011.948
559.219	1012.420
559.552	1012.687
559.886	1012.897
560.219	1012.088
560.552	1012.119
560.886	1012.969
561.219	1013.023
561.553	1013.506
561.886	1013.395
562.220	1013.782
562.553	1012.547
562.886	1013.226
563.220	1012.252
563.553	1013.026
563.887	1012.935
564.220	1013.247
564.554	1013.395
564.887	1011.992
565.220	1012.072
565.554	1011.475
565.887	1012.959
566.221	1011.605
566.554	1011.470
566.888	1012.383
567.221	1011.320
567.555	1010.838
567.888	1011.637
568.221	1011.862
568.555	1012.866
568.888	1010.713
569.222	1012.255
569.555	1012.107
569.889	1011.525
570.222	1011.529
570.555	1011.586
570.889	1011.198
571.222	1012.030
571.556	1011.270
571.889	1011.226
572.223	1010.949
572.556	1011.472
572.889	1011.218
573.223	1012.484
573.556	1011.070
573.890	1011.086
574.223	1010.169
574.557	1009.887
574.890	1009.870
575.223	1010.961
575.557	1010.602
575.890	1010.439
576.224	1010.367
576.557	1010.566
576.891	1009.856
577.224	1010.880
577.557	1010.043
577.891	1010.534
578.224	1010.318
578.558	1010.695
578.891	1009.201
579.225	1009.278
579.558	1010.983
579.892	1009.648
580.225	1010.754
580.558	1009.701
580.892	1009.997
581.225	1009.549
581.559	1009.294
581.892	1008.995
582.226	1009.281
582.559	1009.259
582.892	1009.899
583.226	1010.034
583.559	1008.886
583.893	1009.445
584.226	1009.064
584.560	1009.576
584.893	1008.869
585.226	1009.838
585.560	1008.628
585.893	1007.802
586.227	1008.087
586.560	1009.325
586.894	1008.014
587.227	1007.412
587.560	1009.050
587.894	1007.718
588.227	1007.882
588.561	1008.362
588.894	1007.887
589.228	1007.668
589.561	1007.859
589.894	1007.539
590.228	1007.783
590.561	1007.627
590.895	1007.131
591.228	1007.300
591.562	1007.336
591.895	1006.825
592.228	1007.698
592.562	1008.261
592.895	1006.548
593.229	1006.389
593.562	1006.946
593.896	1006.565
594.229	1007.688
594.563	1007.344
594.896	1005.608
595.229	1006.416
595.563	1006.762
595.896	1005.852
596.230	1006.258
596.563	1005.648
596.897	1006.547
597.230	1006.187
597.563	1005.985
597.897	1006.220
598.230	1006.182
598.564	1005.222
598.897	1005.357
599.231	1005.803
599.564	1005.820
599.897	1005.091
600.231	1005.171
600.564	1004.618
600.898	1004.327
601.231	1004.962
601.565	1005.456
601.898	1004.932
602.231	1004.028
602.565	1002.893
602.898	1004.693
603.232	1004.326
603.565	1004.228
603.899	1003.915
604.232	1004.387
604.565	1004.828
604.899	1002.922
605.232	1004.051
605.566	1003.913
605.899	1002.923
606.233	1002.562
606.566	1002.638
606.899	1003.593
607.233	1003.147
607.566	1002.155
607.900	1003.065
608.233	1002.659
608.567	1003.113
608.900	1002.336
609.234	1001.878
609.567	1002.225
609.900	1002.411
610.234	1002.709
610.567	1002.502
610.901	1002.488
611.234	1001.916
611.568	1000.793
611.901	1000.899
612.234	1001.045
612.568	1000.605
612.901	1000.253
613.235	1001.799
613.568	1001.114
613.902	1000.090
614.235	1000.928
614.568	1000.518
614.902	1000.980
615.235	1000.493
615.569	1000.660
615.902	1001.023
616.236	1000.109
616.569	999.856
616.902	999.213
617.236	998.609
617.569	1000.347
617.903	999.672
618.236	999.143
618.570	999.831
618.903	998.996
619.236	998.757
619.570	998.479
619.903	998.785
620.237	998.122
620.570	998.095
620.904	997.225
621.237	998.047
621.570	998.149
621.904	997.385
622.237	997.681
622.571	998.159
622.904	997.373
623.238	997.394
623.571	996.719
623.905	996.090
624.238	997.805
624.571	996.381
624.905	997.112
625.238	996.901
625.572	996.057
625.905	995.796
626.239	996.291
626.572	996.214
626.905	996.336
627.239	995.910
627.572	995.620
627.906	995.944
628.239	996.194
628.573	996.210
628.906	995.391
629.239	994.890
629.573	995.128
629.906	994.505
630.240	995.396
630.573	994.946
630.907	995.107
631.240	994.951
631.573	993.776
631.907	995.015
632.240	994.059
632.574	995.051
632.907	993.706
633.241	994.161
633.574	993.692
633.907	992.776
634.241	993.142
634.574	993.524
634.908	992.884
635.241	992.365
635.575	992.418
635.908	992.563
636.241	991.651
636.575	991.991
636.908	991.568
637.242	991.214
637.575	990.372
637.909	991.589
638.242	991.236
638.576	990.176
638.909	990.742
639.242	991.679
639.576	990.319
639.909	990.067
640.243	990.235
640.576	989.783
640.910	990.748
641.243	989.410
641.576	989.965
641.910	990.269
642.243	989.772
642.577	990.083
642.910	989.287
643.244	989.372
643.577	989.457
643.910	989.531
644.244	987.694
644.577	988.817
644.911	988.267
645.244	987.973
645.578	988.196
645.911	988.326
646.244	988.187
646.578	987.200
646.911	986.544
647.245	987.147
647.578	987.415
647.912	986.354
648.245	986.548
648.578	986.841
648.912	986.503
649.245	986.498
649.579	986.224
649.912	985.753
650.246	985.859
650.579	986.667
650.912	984.304
651.246	984.669
651.579	984.473
651.913	985.769
652.246	985.825
652.580	984.763
652.913	983.852
653.247	983.727
653.580	983.358
653.913	983.675
654.247	984.839
654.580	983.749
654.914	982.832
655.247	982.400
655.581	983.686
655.914	982.518
656.247	981.936
656.581	983.315
656.914	981.901
657.248	982.030
657.581	982.325
657.915	981.556
658.248	981.744
658.581	981.277
658.915	981.533
659.248	981.255
659.582	982.114
659.915	981.343
660.249	981.295
660.582	980.660
660.915	979.737
661.249	980.221
661.582	980.203
661.916	979.986
662.249	979.142
662.583	978.614
662.916	979.225
663.249	979.679
663.583	979.017
663.916	979.265
664.250	978.263
664.583	978.375
664.917	978.093
665.250	978.278
665.583	978.147
665.917	977.790
666.250	978.157
666.584	976.831
666.917	976.703
667.251	977.130
667.584	977.121
667.918	977.409
668.251	976.170
668.584	976.341
668.918	976.078
669.251	975.476
669.585	975.666
669.918	975.549
670.252	974.803
670.585	973.935
670.918	974.756
671.252	974.786
671.585	974.598
671.919	973.778
672.252	973.401
672.586	974.143
672.919	973.282
673.252	972.934
673.586	973.471
673.919	972.979
674.253	973.672
674.586	973.028
674.920	971.032
675.253	972.589
675.586	972.203
675.920	973.155
676.253	971.815
676.587	970.761
676.920	970.669
677.254	970.421
677.587	971.661
677.920	970.484
678.254	971.242
678.587	971.420
678.921	969.480
679.254	969.648
679.588	970.268
679.921	969.216
680.254	969.272
680.588	968.771
680.921	968.041
681.255	969.581
681.588	968.161
681.922	967.969
682.255	968.534
682.589	967.690
682.922	968.013
683.255	966.597
683.589	967.174
683.922	967.152
684.256	966.086
684.589	967.087
684.923	966.380
685.256	966.400
685.589	966.039
685.923	965.352
686.256	965.942
686.590	965.376
686.923	965.167
687.257	965.466
687.590	965.198
687.923	963.542
688.257	964.427
688.590	964.574
688.924	962.910
689.257	963.256
689.591	963.550
689.924	962.410
690.257	963.101
690.591	963.052
690.924	961.696
691.258	961.598
691.591	961.531
691.925	961.542
692.258	960.939
692.591	961.145
692.925	961.623
693.258	960.824
693.592	961.353
693.925	960.430
694.259	960.624
694.592	960.394
694.925	959.495
695.259	959.668
695.592	959.028
695.926	958.953
696.259	959.276
696.593	959.254
696.926	958.207
697.260	957.618
697.593	958.890
697.926	958.776
698.260	957.604
698.593	957.422
698.927	957.675
699.260	956.396
699.594	957.050
699.927	956.672
700.260	955.569
700.594	956.670
700.927	955.792
701.261	954.812
701.594	955.430
701.928	955.157
702.261	953.980
702.594	954.653
702.928	953.967
703.261	955.445
703.595	954.956
703.928	953.477
704.262	952.477
704.595	953.265
704.928	952.317
705.262	953.846
705.595	951.822
705.929	952.432
706.262	951.994
706.596	951.369
706.929	951.212
707.262	951.495
707.596	951.221
707.929	951.797
708.263	949.819
708.596	950.125
708.930	950.043
709.263	949.760
709.596	949.033
709.930	949.185
710.263	948.892
710.597	949.568
710.930	948.771
711.264	948.848
711.597	948.123
711.931	947.869
712.264	946.803
712.597	947.342
712.931	947.467
713.264	946.889
713.598	946.145
713.931	945.549
714.265	946.255
714.598	946.609
714.931	944.829
715.265	946.077
715.598	944.583
715.932	944.797
716.265	944.613
716.599	944.060
716.932	944.590
717.265	943.675
717.599	943.369
717.932	943.629
718.266	942.934
718.599	942.207
718.933	942.920
719.266	942.210
719.599	942.686
719.933	941.492
720.266	942.359
720.600	941.497
720.933	941.494
721.267	941.145
721.600	940.164
721.933	940.396
722.267	940.303
722.600	940.174
722.934	939.768
723.267	938.797
723.601	939.388
723.934	938.875
724.267	938.221
724.601	937.925
724.934	938.192
725.268	937.974
725.601	938.116
725.935	937.621
726.268	936.681
726.602	936.051
726.935	936.380
727.268	935.786
727.602	936.000
727.935	935.748
728.269	935.228
728.602	935.118
728.936	934.981
729.269	934.027
729.602	934.571
729.936	933.832
730.269	933.813
730.603	932.882
730.936	932.566
731.270	933.932
731.603	933.232
731.936	933.206
732.270	932.410
732.603	930.833
732.937	931.611
733.270	930.713
733.604	930.920
733.937	930.844
734.270	930.125
734.604	929.810
734.937	930.122
735.271	929.160
735.604	928.862
735.938	928.695
736.271	929.120
736.604	928.739
736.938	927.747
737.271	928.478
737.605	927.015
737.938	926.698
738.272	927.983
738.605	927.139
