Data from repetition_3.txt_16-47-09-365.txt Node
Date: Sun Jun 13 23:27:09 CET 2021
User: fcossio
Spectrometer: FLMS15016
Trigger mode: 0
Integration Time (sec): 3.000000E-1Scans to average: 1
Electric dark correction enabled: true
Nonlinearity correction enabled: false
Boxcar width: 0
XAxis mode: Wavelengths
Number of Pixels in Spectrum: 2048
>>>>>Begin Spectral Data<<<<<
340.154	0.000
340.487	0.000
340.821	0.000
341.154	0.000
341.488	0.000
341.821	0.000
342.155	0.000
342.488	0.000
342.821	0.000
343.155	0.000
343.488	0.000
343.822	0.000
344.155	0.000
344.489	0.000
344.822	0.000
345.155	0.000
345.489	0.000
345.822	0.000
346.156	0.000
346.489	0.000
346.823	0.000
347.156	0.000
347.490	0.000
347.823	0.000
348.156	0.000
348.490	0.000
348.823	0.000
349.157	0.000
349.490	0.000
349.824	0.000
350.157	0.000
350.490	0.000
350.824	0.000
351.157	0.000
351.491	0.000
351.824	0.000
352.158	0.000
352.491	0.000
352.824	0.000
353.158	0.000
353.491	0.000
353.825	0.000
354.158	0.000
354.492	0.000
354.825	0.000
355.158	0.000
355.492	0.000
355.825	0.000
356.159	0.000
356.492	0.000
356.826	0.000
357.159	0.000
357.492	0.000
357.826	0.000
358.159	0.000
358.493	0.000
358.826	0.000
359.160	0.000
359.493	0.000
359.826	0.000
360.160	0.000
360.493	0.000
360.827	0.000
361.160	0.000
361.494	0.000
361.827	0.000
362.161	0.000
362.494	0.000
362.827	0.000
363.161	0.000
363.494	0.000
363.828	0.000
364.161	0.000
364.495	0.000
364.828	0.000
365.161	0.000
365.495	0.000
365.828	0.000
366.162	0.000
366.495	0.000
366.829	0.000
367.162	0.000
367.495	0.000
367.829	0.000
368.162	0.000
368.496	0.000
368.829	0.000
369.163	0.000
369.496	0.000
369.829	0.000
370.163	0.000
370.496	0.000
370.830	0.000
371.163	0.000
371.497	0.000
371.830	0.000
372.163	0.000
372.497	0.000
372.830	0.000
373.164	0.000
373.497	0.000
373.831	0.000
374.164	0.000
374.497	0.000
374.831	0.000
375.164	0.000
375.498	0.000
375.831	0.000
376.165	0.000
376.498	0.000
376.832	0.000
377.165	0.000
377.498	0.000
377.832	0.000
378.165	0.000
378.499	0.000
378.832	0.000
379.166	0.000
379.499	0.000
379.832	0.000
380.166	0.000
380.499	0.000
380.833	0.000
381.166	0.000
381.500	0.000
381.833	0.000
382.166	0.000
382.500	0.000
382.833	0.000
383.167	0.000
383.500	0.000
383.834	0.000
384.167	0.000
384.500	0.000
384.834	0.000
385.167	0.000
385.501	0.000
385.834	0.000
386.168	0.000
386.501	0.000
386.834	0.000
387.168	0.000
387.501	0.000
387.835	0.000
388.168	0.000
388.502	0.000
388.835	0.000
389.168	0.000
389.502	0.000
389.835	0.000
390.169	0.000
390.502	0.000
390.836	0.000
391.169	0.000
391.503	0.000
391.836	0.000
392.169	0.000
392.503	0.000
392.836	0.000
393.170	0.000
393.503	0.000
393.837	0.000
394.170	0.000
394.503	0.000
394.837	0.000
395.170	0.000
395.504	0.000
395.837	0.000
396.171	0.000
396.504	0.000
396.837	0.000
397.171	0.000
397.504	0.000
397.838	0.000
398.171	0.000
398.505	0.000
398.838	0.000
399.171	0.000
399.505	0.000
399.838	0.000
400.172	0.000
400.505	0.000
400.839	0.000
401.172	0.000
401.505	0.000
401.839	0.000
402.172	0.000
402.506	0.000
402.839	0.000
403.173	0.000
403.506	0.000
403.839	0.000
404.173	0.000
404.506	0.000
404.840	0.000
405.173	0.000
405.507	0.000
405.840	0.000
406.174	0.000
406.507	0.000
406.840	0.000
407.174	0.000
407.507	0.000
407.841	0.000
408.174	0.000
408.508	0.000
408.841	0.000
409.174	0.000
409.508	0.000
409.841	0.000
410.175	0.000
410.508	0.000
410.842	0.000
411.175	0.000
411.508	0.000
411.842	0.000
412.175	0.000
412.509	0.000
412.842	0.000
413.176	0.000
413.509	0.000
413.842	0.000
414.176	0.000
414.509	0.000
414.843	0.000
415.176	0.000
415.510	0.000
415.843	0.000
416.176	0.000
416.510	0.000
416.843	0.000
417.177	0.000
417.510	0.000
417.844	0.000
418.177	0.000
418.510	0.000
418.844	0.000
419.177	0.000
419.511	0.000
419.844	0.000
420.178	0.000
420.511	0.000
420.845	0.000
421.178	0.000
421.511	0.000
421.845	0.000
422.178	0.000
422.512	0.000
422.845	0.000
423.179	0.000
423.512	0.000
423.845	0.000
424.179	0.000
424.512	0.000
424.846	0.000
425.179	0.000
425.513	0.000
425.846	0.000
426.179	0.000
426.513	0.000
426.846	0.000
427.180	0.000
427.513	0.000
427.847	0.000
428.180	0.000
428.513	0.000
428.847	0.000
429.180	0.000
429.514	0.000
429.847	0.000
430.181	0.000
430.514	0.000
430.847	0.000
431.181	0.000
431.514	0.000
431.848	0.000
432.181	0.000
432.515	0.000
432.848	0.000
433.181	0.000
433.515	0.000
433.848	0.000
434.182	0.000
434.515	0.000
434.849	0.000
435.182	0.000
435.516	0.000
435.849	0.000
436.182	0.000
436.516	0.000
436.849	0.000
437.183	0.000
437.516	0.000
437.850	0.000
438.183	0.000
438.516	0.000
438.850	0.000
439.183	0.000
439.517	0.000
439.850	0.000
440.184	0.000
440.517	0.000
440.850	0.000
441.184	0.000
441.517	0.000
441.851	0.000
442.184	0.000
442.518	0.000
442.851	0.000
443.184	0.000
443.518	0.000
443.851	0.000
444.185	0.000
444.518	0.000
444.852	0.000
445.185	0.000
445.518	0.000
445.852	0.000
446.185	0.000
446.519	0.000
446.852	0.000
447.186	0.000
447.519	0.000
447.852	0.000
448.186	0.000
448.519	0.000
448.853	0.000
449.186	0.000
449.520	0.000
449.853	0.000
450.187	0.000
450.520	0.000
450.853	0.000
451.187	0.000
451.520	0.000
451.854	0.000
452.187	0.000
452.521	0.000
452.854	0.000
453.187	0.000
453.521	0.000
453.854	0.000
454.188	0.000
454.521	0.000
454.855	0.000
455.188	0.000
455.521	0.000
455.855	0.000
456.188	0.000
456.522	0.000
456.855	0.000
457.189	0.000
457.522	0.000
457.855	0.000
458.189	0.000
458.522	0.000
458.856	0.000
459.189	0.000
459.523	0.000
459.856	0.000
460.189	0.000
460.523	0.000
460.856	0.000
461.190	0.000
461.523	0.000
461.857	0.000
462.190	0.000
462.523	0.000
462.857	0.000
463.190	0.000
463.524	0.000
463.857	0.000
464.191	0.000
464.524	0.000
464.858	0.000
465.191	0.000
465.524	0.000
465.858	0.000
466.191	0.000
466.525	0.000
466.858	0.000
467.192	0.000
467.525	0.000
467.858	0.000
468.192	0.000
468.525	0.000
468.859	0.000
469.192	0.000
469.526	0.000
469.859	0.000
470.192	0.000
470.526	0.000
470.859	0.000
471.193	0.000
471.526	0.000
471.860	0.000
472.193	0.000
472.526	0.000
472.860	0.000
473.193	0.000
473.527	0.000
473.860	0.000
474.194	0.000
474.527	0.000
474.860	0.000
475.194	0.000
475.527	0.000
475.861	0.000
476.194	0.000
476.528	0.000
476.861	0.000
477.194	0.000
477.528	0.000
477.861	0.000
478.195	0.000
478.528	0.000
478.862	0.000
479.195	0.000
479.529	0.000
479.862	0.000
480.195	0.000
480.529	0.000
480.862	0.000
481.196	0.000
481.529	0.000
481.863	0.000
482.196	0.000
482.529	0.000
482.863	0.000
483.196	0.000
483.530	0.000
483.863	0.000
484.197	0.000
484.530	0.000
484.863	0.000
485.197	0.000
485.530	0.000
485.864	0.000
486.197	0.000
486.531	0.000
486.864	0.000
487.197	0.000
487.531	0.000
487.864	0.000
488.198	0.000
488.531	0.000
488.865	0.000
489.198	0.000
489.531	0.000
489.865	0.000
490.198	0.000
490.532	0.000
490.865	0.000
491.199	0.000
491.532	0.000
491.865	0.000
492.199	0.000
492.532	0.000
492.866	0.000
493.199	0.000
493.533	0.000
493.866	0.000
494.200	0.000
494.533	0.000
494.866	0.000
495.200	0.000
495.533	0.000
495.867	0.000
496.200	0.000
496.534	0.000
496.867	0.000
497.200	0.000
497.534	0.000
497.867	0.000
498.201	0.000
498.534	0.000
498.868	0.000
499.201	0.000
499.534	0.000
499.868	0.000
500.201	0.000
500.535	0.000
500.868	0.000
501.202	0.000
501.535	0.000
501.868	0.000
502.202	0.000
502.535	0.000
502.869	0.000
503.202	0.000
503.536	0.000
503.869	0.000
504.202	0.000
504.536	0.000
504.869	0.000
505.203	0.000
505.536	0.000
505.870	0.000
506.203	0.000
506.536	0.000
506.870	0.000
507.203	0.000
507.537	0.000
507.870	0.000
508.204	0.000
508.537	0.000
508.871	0.000
509.204	0.000
509.537	0.000
509.871	0.000
510.204	0.000
510.538	0.000
510.871	0.000
511.205	0.000
511.538	0.000
511.871	0.000
512.205	0.000
512.538	0.000
512.872	0.000
513.205	0.000
513.539	0.000
513.872	0.000
514.205	0.000
514.539	0.000
514.872	0.000
515.206	0.000
515.539	0.000
515.873	0.000
516.206	0.000
516.539	0.000
516.873	0.000
517.206	0.000
517.540	0.000
517.873	0.000
518.207	0.000
518.540	0.000
518.873	0.000
519.207	0.000
519.540	0.000
519.874	0.000
520.207	0.000
520.541	0.000
520.874	0.000
521.207	0.000
521.541	0.000
521.874	0.000
522.208	0.000
522.541	0.000
522.875	0.000
523.208	0.000
523.542	0.000
523.875	0.000
524.208	0.000
524.542	0.000
524.875	0.000
525.209	0.000
525.542	0.000
525.876	0.000
526.209	0.000
526.542	0.000
526.876	0.000
527.209	0.000
527.543	0.000
527.876	0.000
528.210	0.000
528.543	0.000
528.876	0.000
529.210	0.000
529.543	0.000
529.877	0.000
530.210	0.000
530.544	0.000
530.877	0.000
531.210	0.000
531.544	0.000
531.877	0.000
532.211	0.000
532.544	0.000
532.878	0.000
533.211	0.000
533.544	0.000
533.878	0.000
534.211	0.000
534.545	0.000
534.878	0.000
535.212	0.000
535.545	0.000
535.878	0.000
536.212	0.000
536.545	0.000
536.879	0.000
537.212	0.000
537.546	0.000
537.879	0.000
538.213	0.000
538.546	0.000
538.879	0.000
539.213	0.000
539.546	0.000
539.880	0.000
540.213	0.000
540.547	0.000
540.880	0.000
541.213	0.000
541.547	0.000
541.880	0.000
542.214	0.000
542.547	0.000
542.881	0.000
543.214	0.000
543.547	0.000
543.881	0.000
544.214	0.000
544.548	0.000
544.881	0.000
545.215	0.000
545.548	0.000
545.881	0.000
546.215	0.000
546.548	0.000
546.882	0.000
547.215	0.000
547.549	0.000
547.882	0.000
548.215	0.000
548.549	0.000
548.882	0.000
549.216	0.000
549.549	0.001
549.883	0.001
550.216	0.001
550.549	0.001
550.883	0.001
551.216	0.001
551.550	0.001
551.883	0.001
552.217	0.001
552.550	0.001
552.884	0.001
553.217	0.002
553.550	0.002
553.884	0.002
554.217	0.002
554.551	0.002
554.884	0.002
555.218	0.003
555.551	0.003
555.884	0.003
556.218	0.004
556.551	0.004
556.885	0.004
557.218	0.005
557.552	0.005
557.885	0.006
558.218	0.006
558.552	0.007
558.885	0.008
559.219	0.008
559.552	0.009
559.886	0.010
560.219	0.011
560.552	0.012
560.886	0.013
561.219	0.015
561.553	0.016
561.886	0.018
562.220	0.019
562.553	0.021
562.886	0.023
563.220	0.026
563.553	0.028
563.887	0.031
564.220	0.034
564.554	0.037
564.887	0.040
565.220	0.044
565.554	0.048
565.887	0.052
566.221	0.057
566.554	0.063
566.888	0.068
567.221	0.075
567.555	0.081
567.888	0.089
568.221	0.097
568.555	0.105
568.888	0.115
569.222	0.125
569.555	0.136
569.889	0.149
570.222	0.162
570.555	0.176
570.889	0.191
571.222	0.208
571.556	0.226
571.889	0.246
572.223	0.267
572.556	0.290
572.889	0.315
573.223	0.341
573.556	0.370
573.890	0.402
574.223	0.435
574.557	0.472
574.890	0.511
575.223	0.553
575.557	0.599
575.890	0.648
576.224	0.701
576.557	0.758
576.891	0.820
577.224	0.886
577.557	0.957
577.891	1.034
578.224	1.116
578.558	1.204
578.891	1.299
579.225	1.401
579.558	1.510
579.892	1.627
580.225	1.753
580.558	1.888
580.892	2.032
581.225	2.186
581.559	2.352
581.892	2.529
582.226	2.718
582.559	2.921
582.892	3.137
583.226	3.368
583.559	3.615
583.893	3.879
584.226	4.161
584.560	4.461
584.893	4.781
585.226	5.122
585.560	5.486
585.893	5.873
586.227	6.285
586.560	6.724
586.894	7.191
587.227	7.687
587.560	8.215
587.894	8.776
588.227	9.371
588.561	10.003
588.894	10.674
589.228	11.385
589.561	12.140
589.894	12.940
590.228	13.787
590.561	14.685
590.895	15.635
591.228	16.640
591.562	17.704
591.895	18.828
592.228	20.017
592.562	21.272
592.895	22.598
593.229	23.998
593.562	25.475
593.896	27.033
594.229	28.676
594.563	30.407
594.896	32.231
595.229	34.151
595.563	36.173
595.896	38.300
596.230	40.537
596.563	42.888
596.897	45.359
597.230	47.955
597.563	50.681
597.897	53.541
598.230	56.542
598.564	59.689
598.897	62.988
599.231	66.444
599.564	70.064
599.897	73.854
600.231	77.819
600.564	81.968
600.898	86.305
601.231	90.839
601.565	95.574
601.898	100.520
602.231	105.682
602.565	111.068
602.898	116.686
603.232	122.542
603.565	128.644
603.899	135.001
604.232	141.618
604.565	148.506
604.899	155.670
605.232	163.120
605.566	170.863
605.899	178.908
606.233	187.262
606.566	195.934
606.899	204.932
607.233	214.265
607.566	223.939
607.900	233.965
608.233	244.349
608.567	255.100
608.900	266.226
609.234	277.735
609.567	289.636
609.900	301.935
610.234	314.642
610.567	327.763
610.901	341.306
611.234	355.279
611.568	369.689
611.901	384.543
612.234	399.847
612.568	415.610
612.901	431.836
613.235	448.532
613.568	465.705
613.902	483.360
614.235	501.502
614.568	520.136
614.902	539.268
615.235	558.901
615.569	579.040
615.902	599.688
616.236	620.850
616.569	642.526
616.902	664.721
617.236	687.436
617.569	710.672
617.903	734.432
618.236	758.714
618.570	783.521
618.903	808.850
619.236	834.702
619.570	861.074
619.903	887.965
620.237	915.373
620.570	943.294
620.904	971.724
621.237	1000.660
621.570	1030.096
621.904	1060.027
622.237	1090.447
622.571	1121.350
622.904	1152.728
623.238	1184.573
623.571	1216.876
623.905	1249.630
624.238	1282.824
624.571	1316.448
624.905	1350.491
625.238	1384.941
625.572	1419.788
625.905	1455.017
626.239	1490.616
626.572	1526.572
626.905	1562.870
627.239	1599.494
627.572	1636.431
627.906	1673.664
628.239	1711.177
628.573	1748.953
628.906	1786.975
629.239	1825.226
629.573	1863.687
629.906	1902.340
630.240	1941.167
630.573	1980.148
630.907	2019.264
631.240	2058.495
631.573	2097.822
631.907	2137.224
632.240	2176.681
632.574	2216.173
632.907	2255.679
633.241	2295.179
633.574	2334.651
633.907	2374.075
634.241	2413.430
634.574	2452.695
634.908	2491.849
635.241	2530.873
635.575	2569.744
635.908	2608.444
636.241	2646.951
636.575	2685.246
636.908	2723.309
637.242	2761.121
637.575	2798.662
637.909	2835.914
638.242	2872.857
638.576	2909.475
638.909	2945.749
639.242	2981.662
639.576	3017.198
639.909	3052.340
640.243	3087.072
640.576	3121.380
640.910	3155.248
641.243	3188.663
641.576	3221.611
641.910	3254.079
642.243	3286.055
642.577	3317.527
642.910	3348.485
643.244	3378.918
643.577	3408.817
643.910	3438.172
644.244	3466.976
644.577	3495.220
644.911	3522.898
645.244	3550.004
645.578	3576.532
645.911	3602.477
646.244	3627.836
646.578	3652.604
646.911	3676.778
647.245	3700.358
647.578	3723.340
647.912	3745.725
648.245	3767.511
648.578	3788.700
648.912	3809.291
649.245	3829.288
649.579	3848.690
649.912	3867.502
650.246	3885.725
650.579	3903.364
650.912	3920.423
651.246	3936.905
651.579	3952.816
651.913	3968.161
652.246	3982.946
652.580	3997.175
652.913	4010.856
653.247	4023.995
653.580	4036.599
653.913	4048.674
654.247	4060.227
654.580	4071.267
654.914	4081.799
655.247	4091.833
655.581	4101.374
655.914	4110.432
656.247	4119.014
656.581	4127.126
656.914	4134.778
657.248	4141.976
657.581	4148.729
657.915	4155.042
658.248	4160.925
658.581	4166.383
658.915	4171.424
659.248	4176.055
659.582	4180.283
659.915	4184.113
660.249	4187.552
660.582	4190.605
660.915	4193.279
661.249	4195.579
661.582	4197.510
661.916	4199.076
662.249	4200.283
662.583	4201.134
662.916	4201.634
663.249	4201.785
663.583	4201.591
663.916	4201.056
664.250	4200.181
664.583	4198.969
664.917	4197.422
665.250	4195.542
665.583	4193.330
665.917	4190.787
666.250	4187.913
666.584	4184.711
666.917	4181.179
667.251	4177.318
667.584	4173.127
667.918	4168.606
668.251	4163.755
668.584	4158.572
668.918	4153.056
669.251	4147.207
669.585	4141.022
669.918	4134.500
670.252	4127.640
670.585	4120.440
670.918	4112.897
671.252	4105.011
671.585	4096.779
671.919	4088.199
672.252	4079.269
672.586	4069.987
672.919	4060.352
673.252	4050.362
673.586	4040.015
673.919	4029.308
674.253	4018.242
674.586	4006.813
674.920	3995.022
675.253	3982.867
675.586	3970.347
675.920	3957.461
676.253	3944.209
676.587	3930.591
676.920	3916.607
677.254	3902.257
677.587	3887.541
677.920	3872.461
678.254	3857.018
678.587	3841.213
678.921	3825.047
679.254	3808.524
679.588	3791.645
679.921	3774.414
680.254	3756.833
680.588	3738.906
680.921	3720.637
681.255	3702.031
681.588	3683.091
681.922	3663.822
682.255	3644.231
682.589	3624.322
682.922	3604.103
683.255	3583.578
683.589	3562.756
683.922	3541.642
684.256	3520.246
684.589	3498.574
684.923	3476.634
685.256	3454.436
685.589	3431.988
685.923	3409.298
686.256	3386.378
686.590	3363.235
686.923	3339.881
687.257	3316.326
687.590	3292.579
687.923	3268.652
688.257	3244.556
688.590	3220.302
688.924	3195.902
689.257	3171.367
689.591	3146.708
689.924	3121.939
690.257	3097.070
690.591	3072.114
690.924	3047.084
691.258	3021.992
691.591	2996.850
691.925	2971.672
692.258	2946.469
692.591	2921.254
692.925	2896.041
693.258	2870.842
693.592	2845.669
693.925	2820.535
694.259	2795.454
694.592	2770.437
694.925	2745.497
695.259	2720.647
695.592	2695.900
695.926	2671.266
696.259	2646.759
696.593	2622.391
696.926	2598.173
697.260	2574.118
697.593	2550.236
697.926	2526.540
698.260	2503.040
698.593	2479.748
698.927	2456.675
699.260	2433.831
699.594	2411.226
699.927	2388.870
700.260	2366.775
700.594	2344.949
700.927	2323.401
701.261	2302.142
701.594	2281.179
701.928	2260.522
702.261	2240.179
702.594	2220.158
702.928	2200.467
703.261	2181.114
703.595	2162.105
703.928	2143.448
704.262	2125.150
704.595	2107.216
704.928	2089.653
705.262	2072.467
705.595	2055.663
705.929	2039.246
706.262	2023.222
706.596	2007.595
706.929	1992.368
707.262	1977.547
707.596	1963.135
707.929	1949.136
708.263	1935.552
708.596	1922.386
708.930	1909.642
709.263	1897.320
709.596	1885.424
709.930	1873.955
710.263	1862.914
710.597	1852.304
710.930	1842.123
711.264	1832.374
711.597	1823.057
711.931	1814.171
712.264	1805.717
712.597	1797.695
712.931	1790.103
713.264	1782.941
713.598	1776.208
713.931	1769.903
714.265	1764.024
714.598	1758.569
714.931	1753.537
715.265	1748.924
715.598	1744.730
715.932	1740.951
716.265	1737.585
716.599	1734.628
716.932	1732.078
717.265	1729.931
717.599	1728.183
717.932	1726.832
718.266	1725.873
718.599	1725.302
718.933	1725.114
719.266	1725.307
719.599	1725.875
719.933	1726.813
720.266	1728.118
720.600	1729.783
720.933	1731.805
721.267	1734.177
721.600	1736.895
721.933	1739.953
722.267	1743.346
722.600	1747.067
722.934	1751.113
723.267	1755.475
723.601	1760.150
723.934	1765.130
724.267	1770.409
724.601	1775.982
724.934	1781.842
725.268	1787.983
725.601	1794.398
725.935	1801.080
726.268	1808.024
726.602	1815.223
726.935	1822.669
727.268	1830.356
727.602	1838.278
727.935	1846.427
728.269	1854.796
728.602	1863.379
728.936	1872.169
729.269	1881.158
729.602	1890.339
729.936	1899.706
730.269	1909.251
730.603	1918.968
730.936	1928.848
731.270	1938.884
731.603	1949.071
731.936	1959.399
732.270	1969.863
732.603	1980.454
732.937	1991.166
733.270	2001.991
733.604	2012.923
733.937	2023.953
734.270	2035.075
734.604	2046.281
734.937	2057.564
735.271	2068.918
735.604	2080.335
735.938	2091.807
736.271	2103.328
736.604	2114.891
736.938	2126.488
737.271	2138.114
737.605	2149.759
737.938	2161.419
738.272	2173.085
738.605	2184.751
738.938	2196.411
739.272	2208.057
739.605	2219.683
739.939	2231.283
740.272	2242.849
740.606	2254.375
740.939	2265.855
741.273	2277.283
741.606	2288.652
741.939	2299.956
742.273	2311.188
742.606	2322.344
742.940	2333.416
743.273	2344.400
743.607	2355.288
743.940	2366.076
744.273	2376.758
744.607	2387.328
744.940	2397.780
745.274	2408.111
745.607	2418.313
745.941	2428.383
746.274	2438.314
746.607	2448.103
746.941	2457.744
747.274	2467.232
747.608	2476.563
747.941	2485.733
748.275	2494.736
748.608	2503.570
748.941	2512.228
749.275	2520.708
749.608	2529.006
749.942	2537.117
750.275	2545.038
750.609	2552.765
750.942	2560.295
751.275	2567.624
751.609	2574.750
751.942	2581.668
752.276	2588.377
752.609	2594.873
752.943	2601.153
753.276	2607.216
753.609	2613.057
753.943	2618.675
754.276	2624.069
754.610	2629.234
754.943	2634.170
755.277	2638.875
755.610	2643.347
755.944	2647.584
756.277	2651.584
756.610	2655.347
756.944	2658.871
757.277	2662.155
757.611	2665.198
757.944	2667.999
758.278	2670.557
758.611	2672.871
758.944	2674.941
759.278	2676.767
759.611	2678.348
759.945	2679.684
760.278	2680.775
760.612	2681.621
760.945	2682.222
761.278	2682.578
761.612	2682.690
761.945	2682.558
762.279	2682.182
762.612	2681.563
762.946	2680.703
763.279	2679.602
763.612	2678.260
763.946	2676.679
764.279	2674.860
764.613	2672.805
764.946	2670.514
765.280	2667.989
765.613	2665.231
765.946	2662.243
766.280	2659.025
766.613	2655.580
766.947	2651.910
767.280	2648.015
767.614	2643.899
767.947	2639.563
768.280	2635.009
768.614	2630.240
768.947	2625.258
769.281	2620.065
769.614	2614.664
769.948	2609.056
770.281	2603.245
770.615	2597.233
770.948	2591.023
