Data from repetition_2.txt_16-47-09-365.txt Node
Date: Sun Jun 13 23:27:09 CET 2021
User: fcossio
Spectrometer: FLMS15016
Trigger mode: 0
Integration Time (sec): 3.000000E-1Scans to average: 1
Electric dark correction enabled: true
Nonlinearity correction enabled: false
Boxcar width: 0
XAxis mode: Wavelengths
Number of Pixels in Spectrum: 2048
>>>>>Begin Spectral Data<<<<<
340.154	0.000
340.487	0.000
340.821	0.000
341.154	0.000
341.488	0.000
341.821	0.000
342.155	0.000
342.488	0.000
342.821	0.000
343.155	0.000
343.488	0.000
343.822	0.000
344.155	0.000
344.489	0.000
344.822	0.000
345.155	0.000
345.489	0.000
345.822	0.000
346.156	0.000
346.489	0.000
346.823	0.000
347.156	0.000
347.490	0.000
347.823	0.000
348.156	0.000
348.490	0.000
348.823	0.000
349.157	0.000
349.490	0.000
349.824	0.000
350.157	0.000
350.490	0.000
350.824	0.000
351.157	0.000
351.491	0.000
351.824	0.000
352.158	0.000
352.491	0.000
352.824	0.000
353.158	0.000
353.491	0.000
353.825	0.000
354.158	0.000
354.492	0.000
354.825	0.000
355.158	0.000
355.492	0.000
355.825	0.000
356.159	0.000
356.492	0.000
356.826	0.000
357.159	0.000
357.492	0.000
357.826	0.000
358.159	0.000
358.493	0.000
358.826	0.000
359.160	0.000
359.493	0.000
359.826	0.000
360.160	0.000
360.493	0.000
360.827	0.000
361.160	0.000
361.494	0.000
361.827	0.000
362.161	0.000
362.494	0.000
362.827	0.000
363.161	0.000
363.494	0.000
363.828	0.000
364.161	0.000
364.495	0.000
364.828	0.000
365.161	0.000
365.495	0.000
365.828	0.000
366.162	0.000
366.495	0.000
366.829	0.000
367.162	0.000
367.495	0.000
367.829	0.000
368.162	0.000
368.496	0.000
368.829	0.000
369.163	0.000
369.496	0.000
369.829	0.000
370.163	0.000
370.496	0.000
370.830	0.000
371.163	0.000
371.497	0.000
371.830	0.000
372.163	0.000
372.497	0.000
372.830	0.000
373.164	0.000
373.497	0.000
373.831	0.000
374.164	0.000
374.497	0.000
374.831	0.000
375.164	0.000
375.498	0.000
375.831	0.000
376.165	0.000
376.498	0.000
376.832	0.000
377.165	0.000
377.498	0.000
377.832	0.000
378.165	0.000
378.499	0.000
378.832	0.000
379.166	0.000
379.499	0.000
379.832	0.000
380.166	0.000
380.499	0.000
380.833	0.000
381.166	0.000
381.500	0.000
381.833	0.000
382.166	0.000
382.500	0.000
382.833	0.000
383.167	0.000
383.500	0.000
383.834	0.000
384.167	0.000
384.500	0.000
384.834	0.000
385.167	0.000
385.501	0.000
385.834	0.000
386.168	0.000
386.501	0.000
386.834	0.000
387.168	0.000
387.501	0.000
387.835	0.000
388.168	0.000
388.502	0.000
388.835	0.000
389.168	0.000
389.502	0.000
389.835	0.000
390.169	0.000
390.502	0.000
390.836	0.000
391.169	0.000
391.503	0.000
391.836	0.000
392.169	0.000
392.503	0.000
392.836	0.000
393.170	0.000
393.503	0.000
393.837	0.000
394.170	0.000
394.503	0.000
394.837	0.000
395.170	0.000
395.504	0.000
395.837	0.000
396.171	0.000
396.504	0.000
396.837	0.000
397.171	0.000
397.504	0.000
397.838	0.000
398.171	0.000
398.505	0.000
398.838	0.000
399.171	0.000
399.505	0.000
399.838	0.000
400.172	0.000
400.505	0.000
400.839	0.000
401.172	0.000
401.505	0.000
401.839	0.000
402.172	0.000
402.506	0.000
402.839	0.000
403.173	0.000
403.506	0.000
403.839	0.000
404.173	0.000
404.506	0.000
404.840	0.000
405.173	0.000
405.507	0.000
405.840	0.000
406.174	0.000
406.507	0.000
406.840	0.000
407.174	0.000
407.507	0.000
407.841	0.000
408.174	0.000
408.508	0.000
408.841	0.000
409.174	0.000
409.508	0.000
409.841	0.000
410.175	0.000
410.508	0.000
410.842	0.000
411.175	0.000
411.508	0.000
411.842	0.000
412.175	0.000
412.509	0.000
412.842	0.000
413.176	0.000
413.509	0.000
413.842	0.000
414.176	0.000
414.509	0.000
414.843	0.000
415.176	0.000
415.510	0.000
415.843	0.000
416.176	0.000
416.510	0.000
416.843	0.000
417.177	0.000
417.510	0.000
417.844	0.000
418.177	0.000
418.510	0.000
418.844	0.000
419.177	0.000
419.511	0.000
419.844	0.000
420.178	0.000
420.511	0.000
420.845	0.000
421.178	0.000
421.511	0.000
421.845	0.000
422.178	0.000
422.512	0.000
422.845	0.000
423.179	0.000
423.512	0.000
423.845	0.000
424.179	0.000
424.512	0.000
424.846	0.000
425.179	0.000
425.513	0.000
425.846	0.000
426.179	0.000
426.513	0.000
426.846	0.000
427.180	0.000
427.513	0.000
427.847	0.000
428.180	0.000
428.513	0.000
428.847	0.000
429.180	0.000
429.514	0.000
429.847	0.000
430.181	0.000
430.514	0.000
430.847	0.000
431.181	0.000
431.514	0.000
431.848	0.000
432.181	0.000
432.515	0.000
432.848	0.000
433.181	0.000
433.515	0.000
433.848	0.000
434.182	0.000
434.515	0.000
434.849	0.000
435.182	0.000
435.516	0.000
435.849	0.000
436.182	0.000
436.516	0.000
436.849	0.000
437.183	0.000
437.516	0.000
437.850	0.000
438.183	0.000
438.516	0.000
438.850	0.000
439.183	0.000
439.517	0.000
439.850	0.000
440.184	0.000
440.517	0.000
440.850	0.000
441.184	0.000
441.517	0.000
441.851	0.000
442.184	0.000
442.518	0.000
442.851	0.000
443.184	0.000
443.518	0.000
443.851	0.000
444.185	0.000
444.518	0.000
444.852	0.000
445.185	0.000
445.518	0.000
445.852	0.000
446.185	0.000
446.519	0.000
446.852	0.000
447.186	0.000
447.519	0.000
447.852	0.000
448.186	0.000
448.519	0.000
448.853	0.000
449.186	0.000
449.520	0.000
449.853	0.000
450.187	0.000
450.520	0.000
450.853	0.000
451.187	0.000
451.520	0.000
451.854	0.000
452.187	0.000
452.521	0.000
452.854	0.000
453.187	0.000
453.521	0.000
453.854	0.000
454.188	0.000
454.521	0.000
454.855	0.000
455.188	0.000
455.521	0.000
455.855	0.000
456.188	0.000
456.522	0.000
456.855	0.000
457.189	0.000
457.522	0.000
457.855	0.000
458.189	0.000
458.522	0.000
458.856	0.000
459.189	0.000
459.523	0.000
459.856	0.000
460.189	0.000
460.523	0.000
460.856	0.000
461.190	0.000
461.523	0.000
461.857	0.000
462.190	0.000
462.523	0.000
462.857	0.000
463.190	0.000
463.524	0.000
463.857	0.000
464.191	0.000
464.524	0.000
464.858	0.000
465.191	0.000
465.524	0.000
465.858	0.000
466.191	0.000
466.525	0.000
466.858	0.000
467.192	0.000
467.525	0.000
467.858	0.000
468.192	0.000
468.525	0.000
468.859	0.000
469.192	0.000
469.526	0.000
469.859	0.000
470.192	0.000
470.526	0.000
470.859	0.000
471.193	0.000
471.526	0.000
471.860	0.000
472.193	0.000
472.526	0.000
472.860	0.000
473.193	0.000
473.527	0.000
473.860	0.000
474.194	0.000
474.527	0.000
474.860	0.000
475.194	0.000
475.527	0.000
475.861	0.000
476.194	0.000
476.528	0.000
476.861	0.000
477.194	0.000
477.528	0.000
477.861	0.000
478.195	0.000
478.528	0.000
478.862	0.000
479.195	0.000
479.529	0.000
479.862	0.000
480.195	0.000
480.529	0.000
480.862	0.000
481.196	0.000
481.529	0.000
481.863	0.000
482.196	0.000
482.529	0.000
482.863	0.000
483.196	0.000
483.530	0.000
483.863	0.000
484.197	0.000
484.530	0.000
484.863	0.000
485.197	0.000
485.530	0.000
485.864	0.000
486.197	0.000
486.531	0.000
486.864	0.000
487.197	0.000
487.531	0.000
487.864	0.000
488.198	0.000
488.531	0.000
488.865	0.000
489.198	0.000
489.531	0.000
489.865	0.000
490.198	0.000
490.532	0.000
490.865	0.000
491.199	0.000
491.532	0.000
491.865	0.000
492.199	0.000
492.532	0.000
492.866	0.000
493.199	0.000
493.533	0.000
493.866	0.000
494.200	0.000
494.533	0.000
494.866	0.000
495.200	0.000
495.533	0.000
495.867	0.000
496.200	0.000
496.534	0.000
496.867	0.000
497.200	0.000
497.534	0.000
497.867	0.000
498.201	0.000
498.534	0.000
498.868	0.000
499.201	0.000
499.534	0.000
499.868	0.000
500.201	0.000
500.535	0.000
500.868	0.000
501.202	0.000
501.535	0.000
501.868	0.000
502.202	0.000
502.535	0.000
502.869	0.000
503.202	0.000
503.536	0.000
503.869	0.000
504.202	0.000
504.536	0.000
504.869	0.000
505.203	0.000
505.536	0.000
505.870	0.000
506.203	0.000
506.536	0.000
506.870	0.000
507.203	0.000
507.537	0.000
507.870	0.000
508.204	0.000
508.537	0.000
508.871	0.000
509.204	0.000
509.537	0.000
509.871	0.000
510.204	0.000
510.538	0.000
510.871	0.000
511.205	0.000
511.538	0.000
511.871	0.000
512.205	0.000
512.538	0.000
512.872	0.000
513.205	0.000
513.539	0.000
513.872	0.000
514.205	0.000
514.539	0.000
514.872	0.000
515.206	0.000
515.539	0.000
515.873	0.000
516.206	0.000
516.539	0.000
516.873	0.000
517.206	0.000
517.540	0.000
517.873	0.000
518.207	0.000
518.540	0.000
518.873	0.000
519.207	0.000
519.540	0.000
519.874	0.000
520.207	0.000
520.541	0.000
520.874	0.000
521.207	0.000
521.541	0.000
521.874	0.000
522.208	0.000
522.541	0.000
522.875	0.000
523.208	0.000
523.542	0.000
523.875	0.000
524.208	0.000
524.542	0.000
524.875	0.000
525.209	0.000
525.542	0.000
525.876	0.000
526.209	0.000
526.542	0.000
526.876	0.000
527.209	0.000
527.543	0.000
527.876	0.000
528.210	0.000
528.543	0.000
528.876	0.000
529.210	0.000
529.543	0.000
529.877	0.000
530.210	0.000
530.544	0.000
530.877	0.000
531.210	0.000
531.544	0.000
531.877	0.000
532.211	0.000
532.544	0.000
532.878	0.000
533.211	0.000
533.544	0.000
533.878	0.000
534.211	0.000
534.545	0.000
534.878	0.000
535.212	0.000
535.545	0.000
535.878	0.000
536.212	0.000
536.545	0.000
536.879	0.000
537.212	0.000
537.546	0.000
537.879	0.000
538.213	0.000
538.546	0.000
538.879	0.000
539.213	0.000
539.546	0.000
539.880	0.000
540.213	0.000
540.547	0.000
540.880	0.000
541.213	0.000
541.547	0.000
541.880	0.000
542.214	0.000
542.547	0.000
542.881	0.000
543.214	0.000
543.547	0.000
543.881	0.000
544.214	0.000
544.548	0.000
544.881	0.000
545.215	0.000
545.548	0.000
545.881	0.000
546.215	0.000
546.548	0.000
546.882	0.000
547.215	0.000
547.549	0.000
547.882	0.000
548.215	0.000
548.549	0.000
548.882	0.000
549.216	0.001
549.549	0.001
549.883	0.001
550.216	0.001
550.549	0.001
550.883	0.001
551.216	0.001
551.550	0.001
551.883	0.001
552.217	0.001
552.550	0.001
552.884	0.002
553.217	0.002
553.550	0.002
553.884	0.002
554.217	0.002
554.551	0.003
554.884	0.003
555.218	0.003
555.551	0.003
555.884	0.004
556.218	0.004
556.551	0.004
556.885	0.005
557.218	0.005
557.552	0.006
557.885	0.006
558.218	0.007
558.552	0.008
558.885	0.008
559.219	0.009
559.552	0.010
559.886	0.011
560.219	0.012
560.552	0.013
560.886	0.015
561.219	0.016
561.553	0.018
561.886	0.019
562.220	0.021
562.553	0.023
562.886	0.025
563.220	0.027
563.553	0.030
563.887	0.033
564.220	0.036
564.554	0.039
564.887	0.043
565.220	0.047
565.554	0.051
565.887	0.055
566.221	0.060
566.554	0.066
566.888	0.072
567.221	0.078
567.555	0.085
567.888	0.093
568.221	0.101
568.555	0.110
568.888	0.119
569.222	0.130
569.555	0.141
569.889	0.153
570.222	0.166
570.555	0.181
570.889	0.196
571.222	0.213
571.556	0.231
571.889	0.251
572.223	0.272
572.556	0.295
572.889	0.319
573.223	0.346
573.556	0.375
573.890	0.405
574.223	0.439
574.557	0.475
574.890	0.513
575.223	0.555
575.557	0.600
575.890	0.648
576.224	0.700
576.557	0.756
576.891	0.815
577.224	0.880
577.557	0.949
577.891	1.023
578.224	1.103
578.558	1.188
578.891	1.280
579.225	1.378
579.558	1.483
579.892	1.596
580.225	1.716
580.558	1.845
580.892	1.983
581.225	2.131
581.559	2.289
581.892	2.458
582.226	2.638
582.559	2.831
582.892	3.036
583.226	3.255
583.559	3.489
583.893	3.739
584.226	4.004
584.560	4.288
584.893	4.589
585.226	4.910
585.560	5.252
585.893	5.616
586.227	6.002
586.560	6.413
586.894	6.850
587.227	7.314
587.560	7.806
587.894	8.329
588.227	8.883
588.561	9.471
588.894	10.095
589.228	10.755
589.561	11.455
589.894	12.196
590.228	12.980
590.561	13.810
590.895	14.688
591.228	15.615
591.562	16.596
591.895	17.632
592.228	18.725
592.562	19.880
592.895	21.098
593.229	22.383
593.562	23.737
593.896	25.165
594.229	26.669
594.563	28.252
594.896	29.919
595.229	31.674
595.563	33.518
595.896	35.458
596.230	37.497
596.563	39.638
596.897	41.887
597.230	44.248
597.563	46.725
597.897	49.323
598.230	52.047
598.564	54.901
598.897	57.892
599.231	61.023
599.564	64.302
599.897	67.731
600.231	71.319
600.564	75.070
600.898	78.989
601.231	83.084
601.565	87.360
601.898	91.823
602.231	96.479
602.565	101.336
602.898	106.399
603.232	111.675
603.565	117.172
603.899	122.895
604.232	128.851
604.565	135.048
604.899	141.493
605.232	148.193
605.566	155.155
605.899	162.386
606.233	169.894
606.566	177.686
606.899	185.770
607.233	194.152
607.566	202.841
607.900	211.843
608.233	221.167
608.567	230.820
608.900	240.809
609.234	251.141
609.567	261.824
609.900	272.866
610.234	284.273
610.567	296.053
610.901	308.212
611.234	320.758
611.568	333.698
611.901	347.038
612.234	360.785
612.568	374.945
612.901	389.524
613.235	404.529
613.568	419.966
613.902	435.839
614.235	452.156
614.568	468.920
614.902	486.136
615.235	503.810
615.569	521.946
615.902	540.547
616.236	559.618
616.569	579.162
616.902	599.182
617.236	619.681
617.569	640.661
617.903	662.124
618.236	684.072
618.570	706.506
618.903	729.427
619.236	752.834
619.570	776.729
619.903	801.110
620.237	825.977
620.570	851.328
620.904	877.160
621.237	903.472
621.570	930.261
621.904	957.523
622.237	985.254
622.571	1013.450
622.904	1042.106
623.238	1071.215
623.571	1100.774
623.905	1130.773
624.238	1161.208
624.571	1192.069
624.905	1223.350
625.238	1255.041
625.572	1287.133
625.905	1319.616
626.239	1352.481
626.572	1385.716
626.905	1419.311
627.239	1453.253
627.572	1487.531
627.906	1522.133
628.239	1557.044
628.573	1592.252
628.906	1627.742
629.239	1663.501
629.573	1699.514
629.906	1735.764
630.240	1772.238
630.573	1808.919
630.907	1845.791
631.240	1882.837
631.573	1920.042
631.907	1957.387
632.240	1994.856
632.574	2032.430
632.907	2070.094
633.241	2107.828
633.574	2145.614
633.907	2183.435
634.241	2221.272
634.574	2259.107
634.908	2296.922
635.241	2334.699
635.575	2372.418
635.908	2410.062
636.241	2447.612
636.575	2485.051
636.908	2522.360
637.242	2559.521
637.575	2596.516
637.909	2633.329
638.242	2669.941
638.576	2706.335
638.909	2742.495
639.242	2778.404
639.576	2814.045
639.909	2849.403
640.243	2884.462
640.576	2919.207
640.910	2953.623
641.243	2987.695
641.576	3021.410
641.910	3054.754
642.243	3087.713
642.577	3120.276
642.910	3152.430
643.244	3184.163
643.577	3215.464
643.910	3246.323
644.244	3276.730
644.577	3306.674
644.911	3336.147
645.244	3365.141
645.578	3393.647
645.911	3421.659
646.244	3449.169
646.578	3476.171
646.911	3502.659
647.245	3528.629
647.578	3554.075
647.912	3578.995
648.245	3603.383
648.578	3627.237
648.912	3650.556
649.245	3673.335
649.579	3695.576
649.912	3717.275
650.246	3738.433
650.579	3759.050
650.912	3779.127
651.246	3798.663
651.579	3817.660
651.913	3836.120
652.246	3854.045
652.580	3871.438
652.913	3888.300
653.247	3904.635
653.580	3920.446
653.913	3935.737
654.247	3950.512
654.580	3964.775
654.914	3978.530
655.247	3991.781
655.581	4004.534
655.914	4016.793
656.247	4028.562
656.581	4039.848
656.914	4050.656
657.248	4060.989
657.581	4070.855
657.915	4080.258
658.248	4089.203
658.581	4097.695
658.915	4105.741
659.248	4113.345
659.582	4120.512
659.915	4127.248
660.249	4133.557
660.582	4139.445
660.915	4144.916
661.249	4149.975
661.582	4154.626
661.916	4158.874
662.249	4162.723
662.583	4166.177
662.916	4169.240
663.249	4171.916
663.583	4174.207
663.916	4176.118
664.250	4177.651
664.583	4178.810
664.917	4179.596
665.250	4180.013
665.583	4180.063
665.917	4179.748
666.250	4179.070
666.584	4178.030
666.917	4176.630
667.251	4174.872
667.584	4172.757
667.918	4170.284
668.251	4167.457
668.584	4164.274
668.918	4160.737
669.251	4156.846
669.585	4152.601
669.918	4148.003
670.252	4143.051
670.585	4137.746
670.918	4132.087
671.252	4126.075
671.585	4119.708
671.919	4112.988
672.252	4105.912
672.586	4098.483
672.919	4090.698
673.252	4082.558
673.586	4074.063
673.919	4065.212
674.253	4056.005
674.586	4046.443
674.920	4036.525
675.253	4026.252
675.586	4015.623
675.920	4004.640
676.253	3993.303
676.587	3981.612
676.920	3969.570
677.254	3957.175
677.587	3944.431
677.920	3931.338
678.254	3917.898
678.587	3904.114
678.921	3889.986
679.254	3875.518
679.588	3860.713
679.921	3845.572
680.254	3830.100
680.588	3814.300
680.921	3798.175
681.255	3781.729
681.588	3764.967
681.922	3747.893
682.255	3730.513
682.589	3712.830
682.922	3694.851
683.255	3676.581
683.589	3658.026
683.922	3639.192
684.256	3620.087
684.589	3600.716
684.923	3581.086
685.256	3561.206
685.589	3541.082
685.923	3520.723
686.256	3500.137
686.590	3479.332
686.923	3458.316
687.257	3437.099
687.590	3415.689
687.923	3394.096
688.257	3372.330
688.590	3350.399
688.924	3328.314
689.257	3306.085
689.591	3283.722
689.924	3261.236
690.257	3238.636
690.591	3215.934
690.924	3193.140
691.258	3170.266
691.591	3147.321
691.925	3124.318
692.258	3101.267
692.591	3078.180
692.925	3055.067
693.258	3031.941
693.592	3008.812
693.925	2985.691
694.259	2962.590
694.592	2939.520
694.925	2916.493
695.259	2893.519
695.592	2870.610
695.926	2847.777
696.259	2825.031
696.593	2802.383
696.926	2779.844
697.260	2757.424
697.593	2735.134
697.926	2712.986
698.260	2690.988
698.593	2669.152
698.927	2647.487
699.260	2626.004
699.594	2604.711
699.927	2583.620
700.260	2562.739
700.594	2542.077
700.927	2521.643
701.261	2501.447
701.594	2481.496
701.928	2461.800
702.261	2442.366
702.594	2423.202
702.928	2404.317
703.261	2385.716
703.595	2367.408
703.928	2349.400
704.262	2331.698
704.595	2314.309
704.928	2297.238
705.262	2280.493
705.595	2264.078
705.929	2247.999
706.262	2232.261
706.596	2216.869
706.929	2201.828
707.262	2187.142
707.596	2172.815
707.929	2158.851
708.263	2145.253
708.596	2132.026
708.930	2119.171
709.263	2106.692
709.596	2094.591
709.930	2082.871
710.263	2071.533
710.597	2060.580
710.930	2050.012
711.264	2039.832
711.597	2030.039
711.931	2020.635
712.264	2011.621
712.597	2002.996
712.931	1994.761
713.264	1986.915
713.598	1979.458
713.931	1972.390
714.265	1965.709
714.598	1959.415
714.931	1953.506
715.265	1947.980
715.598	1942.836
715.932	1938.073
716.265	1933.687
716.599	1929.677
716.932	1926.040
717.265	1922.774
717.599	1919.875
717.932	1917.340
718.266	1915.167
718.599	1913.352
718.933	1911.891
719.266	1910.780
719.599	1910.017
719.933	1909.596
720.266	1909.513
720.600	1909.765
720.933	1910.347
721.267	1911.254
721.600	1912.481
721.933	1914.024
722.267	1915.877
722.600	1918.036
722.934	1920.496
723.267	1923.250
723.601	1926.294
723.934	1929.622
724.267	1933.228
724.601	1937.107
724.934	1941.253
725.268	1945.660
725.601	1950.323
725.935	1955.234
726.268	1960.387
726.602	1965.778
726.935	1971.399
727.268	1977.244
727.602	1983.306
727.935	1989.580
728.269	1996.058
728.602	2002.735
728.936	2009.603
729.269	2016.656
729.602	2023.887
729.936	2031.290
730.269	2038.858
730.603	2046.584
730.936	2054.461
731.270	2062.483
731.603	2070.642
731.936	2078.932
732.270	2087.346
732.603	2095.878
732.937	2104.519
733.270	2113.265
733.604	2122.106
733.937	2131.038
734.270	2140.053
734.604	2149.143
734.937	2158.304
735.271	2167.526
735.604	2176.805
735.938	2186.133
736.271	2195.503
736.604	2204.909
736.938	2214.344
737.271	2223.801
737.605	2233.275
737.938	2242.758
738.272	2252.245
738.605	2261.728
738.938	2271.201
739.272	2280.658
739.605	2290.093
739.939	2299.500
740.272	2308.872
740.606	2318.203
740.939	2327.488
741.273	2336.721
741.606	2345.895
741.939	2355.005
742.273	2364.045
742.606	2373.010
742.940	2381.894
743.273	2390.692
743.607	2399.398
743.940	2408.007
744.273	2416.514
744.607	2424.913
744.940	2433.201
745.274	2441.371
745.607	2449.420
745.941	2457.342
746.274	2465.133
746.607	2472.788
746.941	2480.303
747.274	2487.674
747.608	2494.896
747.941	2501.966
748.275	2508.879
748.608	2515.632
748.941	2522.220
749.275	2528.641
749.608	2534.891
749.942	2540.966
750.275	2546.863
750.609	2552.578
750.942	2558.110
751.275	2563.454
751.609	2568.609
751.942	2573.571
752.276	2578.338
752.609	2582.907
752.943	2587.275
753.276	2591.442
753.609	2595.404
753.943	2599.160
754.276	2602.707
754.610	2606.045
754.943	2609.171
755.277	2612.083
755.610	2614.781
755.944	2617.263
756.277	2619.528
756.610	2621.574
756.944	2623.402
757.277	2625.009
757.611	2626.396
757.944	2627.561
758.278	2628.504
758.611	2629.226
758.944	2629.724
759.278	2630.000
759.611	2630.054
759.945	2629.884
760.278	2629.492
760.612	2628.877
760.945	2628.040
761.278	2626.982
761.612	2625.703
761.945	2624.203
762.279	2622.483
762.612	2620.544
762.946	2618.387
763.279	2616.013
763.612	2613.423
763.946	2610.619
764.279	2607.600
764.613	2604.370
764.946	2600.928
765.280	2597.278
765.613	2593.419
765.946	2589.354
766.280	2585.085
766.613	2580.613
766.947	2575.940
767.280	2571.068
767.614	2566.000
767.947	2560.736
768.280	2555.279
768.614	2549.632
768.947	2543.797
769.281	2537.775
769.614	2531.569
769.948	2525.182
770.281	2518.615
770.615	2511.872
770.948	2504.955
771.281	2497.866
