Data from repetition_1.txt_16-47-09-365.txt Node
Date: Sun Jun 13 23:27:09 CET 2021
User: fcossio
Spectrometer: FLMS15016
Trigger mode: 0
Integration Time (sec): 3.000000E-1Scans to average: 1
Electric dark correction enabled: true
Nonlinearity correction enabled: false
Boxcar width: 0
XAxis mode: Wavelengths
Number of Pixels in Spectrum: 2048
>>>>>Begin Spectral Data<<<<<
340.154	0.000
340.487	0.000
340.821	0.000
341.154	0.000
341.488	0.000
341.821	0.000
342.155	0.000
342.488	0.000
342.821	0.000
343.155	0.000
343.488	0.000
343.822	0.000
344.155	0.000
344.489	0.000
344.822	0.000
345.155	0.000
345.489	0.000
345.822	0.000
346.156	0.000
346.489	0.000
346.823	0.000
347.156	0.000
347.490	0.000
347.823	0.000
348.156	0.000
348.490	0.000
348.823	0.000
349.157	0.000
349.490	0.000
349.824	0.000
350.157	0.000
350.490	0.000
350.824	0.000
351.157	0.000
351.491	0.000
351.824	0.000
352.158	0.000
352.491	0.000
352.824	0.000
353.158	0.000
353.491	0.000
353.825	0.000
354.158	0.000
354.492	0.000
354.825	0.000
355.158	0.000
355.492	0.000
355.825	0.000
356.159	0.000
356.492	0.000
356.826	0.000
357.159	0.000
357.492	0.000
357.826	0.000
358.159	0.000
358.493	0.000
358.826	0.000
359.160	0.000
359.493	0.000
359.826	0.000
360.160	0.000
360.493	0.000
360.827	0.000
361.160	0.000
361.494	0.000
361.827	0.000
362.161	0.000
362.494	0.000
362.827	0.000
363.161	0.000
363.494	0.000
363.828	0.000
364.161	0.000
364.495	0.000
364.828	0.000
365.161	0.000
365.495	0.000
365.828	0.000
366.162	0.000
366.495	0.000
366.829	0.000
367.162	0.000
367.495	0.000
367.829	0.000
368.162	0.000
368.496	0.000
368.829	0.000
369.163	0.000
369.496	0.000
369.829	0.000
370.163	0.000
370.496	0.000
370.830	0.000
371.163	0.000
371.497	0.000
371.830	0.000
372.163	0.000
372.497	0.000
372.830	0.000
373.164	0.000
373.497	0.000
373.831	0.000
374.164	0.000
374.497	0.000
374.831	0.000
375.164	0.000
375.498	0.000
375.831	0.000
376.165	0.000
376.498	0.000
376.832	0.000
377.165	0.000
377.498	0.000
377.832	0.000
378.165	0.000
378.499	0.000
378.832	0.000
379.166	0.000
379.499	0.000
379.832	0.000
380.166	0.000
380.499	0.000
380.833	0.000
381.166	0.000
381.500	0.000
381.833	0.000
382.166	0.000
382.500	0.000
382.833	0.000
383.167	0.000
383.500	0.000
383.834	0.000
384.167	0.000
384.500	0.000
384.834	0.000
385.167	0.000
385.501	0.000
385.834	0.000
386.168	0.000
386.501	0.000
386.834	0.000
387.168	0.000
387.501	0.000
387.835	0.000
388.168	0.000
388.502	0.000
388.835	0.000
389.168	0.000
389.502	0.000
389.835	0.000
390.169	0.000
390.502	0.000
390.836	0.000
391.169	0.000
391.503	0.000
391.836	0.000
392.169	0.000
392.503	0.000
392.836	0.000
393.170	0.000
393.503	0.000
393.837	0.000
394.170	0.000
394.503	0.000
394.837	0.000
395.170	0.000
395.504	0.000
395.837	0.000
396.171	0.000
396.504	0.000
396.837	0.000
397.171	0.000
397.504	0.000
397.838	0.000
398.171	0.000
398.505	0.000
398.838	0.000
399.171	0.000
399.505	0.000
399.838	0.000
400.172	0.000
400.505	0.000
400.839	0.000
401.172	0.000
401.505	0.000
401.839	0.000
402.172	0.000
402.506	0.000
402.839	0.000
403.173	0.000
403.506	0.000
403.839	0.000
404.173	0.000
404.506	0.000
404.840	0.000
405.173	0.000
405.507	0.000
405.840	0.000
406.174	0.000
406.507	0.000
406.840	0.000
407.174	0.000
407.507	0.000
407.841	0.000
408.174	0.000
408.508	0.000
408.841	0.000
409.174	0.000
409.508	0.000
409.841	0.000
410.175	0.000
410.508	0.000
410.842	0.000
411.175	0.000
411.508	0.000
411.842	0.000
412.175	0.000
412.509	0.000
412.842	0.000
413.176	0.000
413.509	0.000
413.842	0.000
414.176	0.000
414.509	0.000
414.843	0.000
415.176	0.000
415.510	0.000
415.843	0.000
416.176	0.000
416.510	0.000
416.843	0.000
417.177	0.000
417.510	0.000
417.844	0.000
418.177	0.000
418.510	0.000
418.844	0.000
419.177	0.000
419.511	0.000
419.844	0.000
420.178	0.000
420.511	0.000
420.845	0.000
421.178	0.000
421.511	0.000
421.845	0.000
422.178	0.000
422.512	0.000
422.845	0.000
423.179	0.000
423.512	0.000
423.845	0.000
424.179	0.000
424.512	0.000
424.846	0.000
425.179	0.000
425.513	0.000
425.846	0.000
426.179	0.000
426.513	0.000
426.846	0.000
427.180	0.000
427.513	0.000
427.847	0.000
428.180	0.000
428.513	0.000
428.847	0.000
429.180	0.000
429.514	0.000
429.847	0.000
430.181	0.000
430.514	0.000
430.847	0.000
431.181	0.000
431.514	0.000
431.848	0.000
432.181	0.000
432.515	0.000
432.848	0.000
433.181	0.000
433.515	0.000
433.848	0.000
434.182	0.000
434.515	0.000
434.849	0.000
435.182	0.000
435.516	0.000
435.849	0.000
436.182	0.000
436.516	0.000
436.849	0.000
437.183	0.000
437.516	0.000
437.850	0.000
438.183	0.000
438.516	0.000
438.850	0.000
439.183	0.000
439.517	0.000
439.850	0.000
440.184	0.000
440.517	0.000
440.850	0.000
441.184	0.000
441.517	0.000
441.851	0.000
442.184	0.000
442.518	0.000
442.851	0.000
443.184	0.000
443.518	0.000
443.851	0.000
444.185	0.000
444.518	0.000
444.852	0.000
445.185	0.000
445.518	0.000
445.852	0.000
446.185	0.000
446.519	0.000
446.852	0.000
447.186	0.000
447.519	0.000
447.852	0.000
448.186	0.000
448.519	0.000
448.853	0.000
449.186	0.000
449.520	0.000
449.853	0.000
450.187	0.000
450.520	0.000
450.853	0.000
451.187	0.000
451.520	0.000
451.854	0.000
452.187	0.000
452.521	0.000
452.854	0.000
453.187	0.000
453.521	0.000
453.854	0.000
454.188	0.000
454.521	0.000
454.855	0.000
455.188	0.000
455.521	0.000
455.855	0.000
456.188	0.000
456.522	0.000
456.855	0.000
457.189	0.000
457.522	0.000
457.855	0.000
458.189	0.000
458.522	0.000
458.856	0.000
459.189	0.000
459.523	0.000
459.856	0.000
460.189	0.000
460.523	0.000
460.856	0.000
461.190	0.000
461.523	0.000
461.857	0.000
462.190	0.000
462.523	0.000
462.857	0.000
463.190	0.000
463.524	0.000
463.857	0.000
464.191	0.000
464.524	0.000
464.858	0.000
465.191	0.000
465.524	0.000
465.858	0.000
466.191	0.000
466.525	0.000
466.858	0.000
467.192	0.000
467.525	0.000
467.858	0.000
468.192	0.000
468.525	0.000
468.859	0.000
469.192	0.000
469.526	0.000
469.859	0.000
470.192	0.000
470.526	0.000
470.859	0.000
471.193	0.000
471.526	0.000
471.860	0.000
472.193	0.000
472.526	0.000
472.860	0.000
473.193	0.000
473.527	0.000
473.860	0.000
474.194	0.000
474.527	0.000
474.860	0.000
475.194	0.000
475.527	0.000
475.861	0.000
476.194	0.000
476.528	0.000
476.861	0.000
477.194	0.000
477.528	0.000
477.861	0.000
478.195	0.000
478.528	0.000
478.862	0.000
479.195	0.000
479.529	0.000
479.862	0.000
480.195	0.000
480.529	0.000
480.862	0.000
481.196	0.000
481.529	0.000
481.863	0.000
482.196	0.000
482.529	0.000
482.863	0.000
483.196	0.000
483.530	0.000
483.863	0.000
484.197	0.000
484.530	0.000
484.863	0.000
485.197	0.000
485.530	0.000
485.864	0.000
486.197	0.000
486.531	0.000
486.864	0.000
487.197	0.000
487.531	0.000
487.864	0.000
488.198	0.000
488.531	0.000
488.865	0.000
489.198	0.000
489.531	0.000
489.865	0.000
490.198	0.000
490.532	0.000
490.865	0.000
491.199	0.000
491.532	0.000
491.865	0.000
492.199	0.000
492.532	0.000
492.866	0.000
493.199	0.000
493.533	0.000
493.866	0.000
494.200	0.000
494.533	0.000
494.866	0.000
495.200	0.000
495.533	0.000
495.867	0.000
496.200	0.000
496.534	0.000
496.867	0.000
497.200	0.000
497.534	0.000
497.867	0.000
498.201	0.000
498.534	0.000
498.868	0.000
499.201	0.000
499.534	0.000
499.868	0.000
500.201	0.000
500.535	0.000
500.868	0.000
501.202	0.000
501.535	0.000
501.868	0.000
502.202	0.000
502.535	0.000
502.869	0.000
503.202	0.000
503.536	0.000
503.869	0.000
504.202	0.000
504.536	0.000
504.869	0.000
505.203	0.000
505.536	0.000
505.870	0.000
506.203	0.000
506.536	0.000
506.870	0.000
507.203	0.000
507.537	0.000
507.870	0.000
508.204	0.000
508.537	0.000
508.871	0.000
509.204	0.000
509.537	0.000
509.871	0.000
510.204	0.000
510.538	0.000
510.871	0.000
511.205	0.000
511.538	0.000
511.871	0.000
512.205	0.000
512.538	0.000
512.872	0.000
513.205	0.000
513.539	0.000
513.872	0.000
514.205	0.000
514.539	0.000
514.872	0.000
515.206	0.000
515.539	0.000
515.873	0.000
516.206	0.000
516.539	0.000
516.873	0.000
517.206	0.000
517.540	0.000
517.873	0.000
518.207	0.000
518.540	0.000
518.873	0.000
519.207	0.000
519.540	0.000
519.874	0.000
520.207	0.000
520.541	0.000
520.874	0.000
521.207	0.000
521.541	0.000
521.874	0.000
522.208	0.000
522.541	0.000
522.875	0.000
523.208	0.000
523.542	0.000
523.875	0.000
524.208	0.000
524.542	0.000
524.875	0.000
525.209	0.000
525.542	0.000
525.876	0.000
526.209	0.000
526.542	0.000
526.876	0.000
527.209	0.000
527.543	0.000
527.876	0.000
528.210	0.000
528.543	0.000
528.876	0.000
529.210	0.000
529.543	0.000
529.877	0.000
530.210	0.000
530.544	0.000
530.877	0.000
531.210	0.000
531.544	0.000
531.877	0.000
532.211	0.000
532.544	0.000
532.878	0.000
533.211	0.000
533.544	0.000
533.878	0.000
534.211	0.000
534.545	0.000
534.878	0.000
535.212	0.000
535.545	0.000
535.878	0.000
536.212	0.000
536.545	0.000
536.879	0.000
537.212	0.000
537.546	0.000
537.879	0.000
538.213	0.000
538.546	0.000
538.879	0.000
539.213	0.000
539.546	0.000
539.880	0.000
540.213	0.000
540.547	0.000
540.880	0.000
541.213	0.000
541.547	0.000
541.880	0.000
542.214	0.000
542.547	0.000
542.881	0.000
543.214	0.000
543.547	0.000
543.881	0.000
544.214	0.000
544.548	0.000
544.881	0.001
545.215	0.001
545.548	0.001
545.881	0.001
546.215	0.001
546.548	0.001
546.882	0.001
547.215	0.001
547.549	0.001
547.882	0.001
548.215	0.001
548.549	0.002
548.882	0.002
549.216	0.002
549.549	0.002
549.883	0.002
550.216	0.003
550.549	0.003
550.883	0.003
551.216	0.004
551.550	0.004
551.883	0.004
552.217	0.005
552.550	0.005
552.884	0.006
553.217	0.006
553.550	0.007
553.884	0.008
554.217	0.008
554.551	0.009
554.884	0.010
555.218	0.011
555.551	0.012
555.884	0.013
556.218	0.015
556.551	0.016
556.885	0.018
557.218	0.019
557.552	0.021
557.885	0.023
558.218	0.025
558.552	0.028
558.885	0.030
559.219	0.033
559.552	0.036
559.886	0.040
560.219	0.043
560.552	0.047
560.886	0.052
561.219	0.057
561.553	0.062
561.886	0.067
562.220	0.073
562.553	0.080
562.886	0.087
563.220	0.095
563.553	0.103
563.887	0.112
564.220	0.122
564.554	0.133
564.887	0.144
565.220	0.157
565.554	0.170
565.887	0.185
566.221	0.201
566.554	0.218
566.888	0.237
567.221	0.257
567.555	0.278
567.888	0.302
568.221	0.327
568.555	0.354
568.888	0.383
569.222	0.415
569.555	0.448
569.889	0.485
570.222	0.524
570.555	0.567
570.889	0.612
571.222	0.661
571.556	0.714
571.889	0.770
572.223	0.831
572.556	0.896
572.889	0.966
573.223	1.041
573.556	1.122
573.890	1.208
574.223	1.300
574.557	1.399
574.890	1.506
575.223	1.619
575.557	1.740
575.890	1.870
576.224	2.009
576.557	2.158
576.891	2.316
577.224	2.486
577.557	2.666
577.891	2.859
578.224	3.065
578.558	3.284
578.891	3.518
579.225	3.768
579.558	4.033
579.892	4.316
580.225	4.616
580.558	4.936
580.892	5.276
581.225	5.638
581.559	6.022
581.892	6.431
582.226	6.864
582.559	7.324
582.892	7.812
583.226	8.330
583.559	8.879
583.893	9.461
584.226	10.077
584.560	10.729
584.893	11.420
585.226	12.151
585.560	12.924
585.893	13.741
586.227	14.605
586.560	15.517
586.894	16.481
587.227	17.498
587.560	18.572
587.894	19.704
588.227	20.898
588.561	22.156
588.894	23.482
589.228	24.878
589.561	26.348
589.894	27.894
590.228	29.521
590.561	31.232
590.895	33.030
591.228	34.919
591.562	36.904
591.895	38.987
592.228	41.172
592.562	43.465
592.895	45.870
593.229	48.390
593.562	51.031
593.896	53.796
594.229	56.691
594.563	59.721
594.896	62.890
595.229	66.204
595.563	69.668
595.896	73.287
596.230	77.067
596.563	81.012
596.897	85.130
597.230	89.425
597.563	93.904
597.897	98.572
598.230	103.435
598.564	108.499
598.897	113.772
599.231	119.258
599.564	124.965
599.897	130.898
600.231	137.064
600.564	143.470
600.898	150.123
601.231	157.028
601.565	164.193
601.898	171.625
602.231	179.329
602.565	187.313
602.898	195.583
603.232	204.147
603.565	213.011
603.899	222.181
604.232	231.664
604.565	241.467
604.899	251.596
605.232	262.058
605.566	272.860
605.899	284.007
606.233	295.505
606.566	307.361
606.899	319.581
607.233	332.170
607.566	345.135
607.900	358.480
608.233	372.211
608.567	386.333
608.900	400.851
609.234	415.770
609.567	431.094
609.900	446.827
610.234	462.973
610.567	479.536
610.901	496.520
611.234	513.926
611.568	531.759
611.901	550.020
612.234	568.712
612.568	587.836
612.901	607.394
613.235	627.387
613.568	647.815
613.902	668.678
614.235	689.976
614.568	711.709
614.902	733.875
615.235	756.474
615.569	779.502
615.902	802.958
616.236	826.838
616.569	851.140
616.902	875.859
617.236	900.991
617.569	926.531
617.903	952.474
618.236	978.814
618.570	1005.545
618.903	1032.660
619.236	1060.151
619.570	1088.011
619.903	1116.231
620.237	1144.803
620.570	1173.717
620.904	1202.964
621.237	1232.533
621.570	1262.413
621.904	1292.593
622.237	1323.062
622.571	1353.807
622.904	1384.816
623.238	1416.076
623.571	1447.573
623.905	1479.294
624.238	1511.225
624.571	1543.350
624.905	1575.655
625.238	1608.126
625.572	1640.745
625.905	1673.498
626.239	1706.369
626.572	1739.340
626.905	1772.396
627.239	1805.520
627.572	1838.694
627.906	1871.903
628.239	1905.128
628.573	1938.352
628.906	1971.558
629.239	2004.728
629.573	2037.846
629.906	2070.892
630.240	2103.851
630.573	2136.705
630.907	2169.436
631.240	2202.028
631.573	2234.463
631.907	2266.725
632.240	2298.796
632.574	2330.661
632.907	2362.304
633.241	2393.709
633.574	2424.859
633.907	2455.741
634.241	2486.339
634.574	2516.640
634.908	2546.628
635.241	2576.290
635.575	2605.614
635.908	2634.586
636.241	2663.195
636.575	2691.430
636.908	2719.278
637.242	2746.731
637.575	2773.777
637.909	2800.408
638.242	2826.615
638.576	2852.390
638.909	2877.726
639.242	2902.615
639.576	2927.053
639.909	2951.033
640.243	2974.550
640.576	2997.602
640.910	3020.183
641.243	3042.292
641.576	3063.927
641.910	3085.086
642.243	3105.768
642.577	3125.973
642.910	3145.702
643.244	3164.957
643.577	3183.739
643.910	3202.050
644.244	3219.894
644.577	3237.275
644.911	3254.196
645.244	3270.663
645.578	3286.681
645.911	3302.257
646.244	3317.396
646.578	3332.105
646.911	3346.392
647.245	3360.265
647.578	3373.732
647.912	3386.801
648.245	3399.482
648.578	3411.784
648.912	3423.717
649.245	3435.290
649.579	3446.513
649.912	3457.397
650.246	3467.953
650.579	3478.191
650.912	3488.122
651.246	3497.756
651.579	3507.106
651.913	3516.181
652.246	3524.992
652.580	3533.552
652.913	3541.869
653.247	3549.956
653.580	3557.823
653.913	3565.480
654.247	3572.938
654.580	3580.206
654.914	3587.295
655.247	3594.215
655.581	3600.973
655.914	3607.580
656.247	3614.044
656.581	3620.373
656.914	3626.575
657.248	3632.658
657.581	3638.629
657.915	3644.494
658.248	3650.259
658.581	3655.931
658.915	3661.514
659.248	3667.013
659.582	3672.433
659.915	3677.777
660.249	3683.048
660.582	3688.248
660.915	3693.381
661.249	3698.447
661.582	3703.449
661.916	3708.385
662.249	3713.256
662.583	3718.062
662.916	3722.802
663.249	3727.473
663.583	3732.074
663.916	3736.603
664.250	3741.055
664.583	3745.428
664.917	3749.718
665.250	3753.919
665.583	3758.027
665.917	3762.037
666.250	3765.942
666.584	3769.737
666.917	3773.415
667.251	3776.969
667.584	3780.391
667.918	3783.675
668.251	3786.813
668.584	3789.795
668.918	3792.615
669.251	3795.262
669.585	3797.730
669.918	3800.008
670.252	3802.087
670.585	3803.959
670.918	3805.614
671.252	3807.043
671.585	3808.237
671.919	3809.185
672.252	3809.879
672.586	3810.310
672.919	3810.468
673.252	3810.343
673.586	3809.927
673.919	3809.212
674.253	3808.187
674.586	3806.846
674.920	3805.178
675.253	3803.176
675.586	3800.833
675.920	3798.141
676.253	3795.091
676.587	3791.678
676.920	3787.895
677.254	3783.735
677.587	3779.193
677.920	3774.262
678.254	3768.938
678.587	3763.216
678.921	3757.092
679.254	3750.561
679.588	3743.620
679.921	3736.267
680.254	3728.498
680.588	3720.312
680.921	3711.707
681.255	3702.682
681.588	3693.237
681.922	3683.370
682.255	3673.084
682.589	3662.377
682.922	3651.253
683.255	3639.713
683.589	3627.758
683.922	3615.393
684.256	3602.620
684.589	3589.443
684.923	3575.867
685.256	3561.896
685.589	3547.535
685.923	3532.791
686.256	3517.669
686.590	3502.177
686.923	3486.320
687.257	3470.107
687.590	3453.545
687.923	3436.643
688.257	3419.410
688.590	3401.853
688.924	3383.983
689.257	3365.810
689.591	3347.343
689.924	3328.593
690.257	3309.570
690.591	3290.285
690.924	3270.750
691.258	3250.976
691.591	3230.974
691.925	3210.757
692.258	3190.337
692.591	3169.725
692.925	3148.935
693.258	3127.978
693.592	3106.868
693.925	3085.618
694.259	3064.239
694.592	3042.746
694.925	3021.151
695.259	2999.468
695.592	2977.710
695.926	2955.889
696.259	2934.019
696.593	2912.113
696.926	2890.185
697.260	2868.246
697.593	2846.312
697.926	2824.393
698.260	2802.503
698.593	2780.656
698.927	2758.862
699.260	2737.136
699.594	2715.489
699.927	2693.934
700.260	2672.483
700.594	2651.147
700.927	2629.938
701.261	2608.868
701.594	2587.948
701.928	2567.190
702.261	2546.603
702.594	2526.200
702.928	2505.989
703.261	2485.982
703.595	2466.187
703.928	2446.616
704.262	2427.277
704.595	2408.180
704.928	2389.333
705.262	2370.745
705.595	2352.424
705.929	2334.378
706.262	2316.616
706.596	2299.143
706.929	2281.969
707.262	2265.099
707.596	2248.540
707.929	2232.298
708.263	2216.380
708.596	2200.791
708.930	2185.536
709.263	2170.621
709.596	2156.050
709.930	2141.827
710.263	2127.958
710.597	2114.446
710.930	2101.294
711.264	2088.507
711.597	2076.086
711.931	2064.035
712.264	2052.356
712.597	2041.052
712.931	2030.124
713.264	2019.574
713.598	2009.404
713.931	1999.614
714.265	1990.205
714.598	1981.179
714.931	1972.535
715.265	1964.273
715.598	1956.394
715.932	1948.897
716.265	1941.781
716.599	1935.046
716.932	1928.690
717.265	1922.712
717.599	1917.111
717.932	1911.885
718.266	1907.032
718.599	1902.550
718.933	1898.437
719.266	1894.689
719.599	1891.305
719.933	1888.281
720.266	1885.614
720.600	1883.302
720.933	1881.340
721.267	1879.725
721.600	1878.454
721.933	1877.522
722.267	1876.925
722.600	1876.660
722.934	1876.721
723.267	1877.105
723.601	1877.807
723.934	1878.821
724.267	1880.144
724.601	1881.770
724.934	1883.694
725.268	1885.911
725.601	1888.416
725.935	1891.203
726.268	1894.266
726.602	1897.601
726.935	1901.202
727.268	1905.062
727.602	1909.176
727.935	1913.538
728.269	1918.142
728.602	1922.982
728.936	1928.052
729.269	1933.345
729.602	1938.857
729.936	1944.579
730.269	1950.506
730.603	1956.632
730.936	1962.950
731.270	1969.454
731.603	1976.137
731.936	1982.993
732.270	1990.016
732.603	1997.197
732.937	2004.533
733.270	2012.014
733.604	2019.636
733.937	2027.391
734.270	2035.273
734.604	2043.275
734.937	2051.390
735.271	2059.613
735.604	2067.936
735.938	2076.353
736.271	2084.857
736.604	2093.442
736.938	2102.101
737.271	2110.828
737.605	2119.616
737.938	2128.459
738.272	2137.351
738.605	2146.284
738.938	2155.253
739.272	2164.252
739.605	2173.273
739.939	2182.312
740.272	2191.361
740.606	2200.415
740.939	2209.467
741.273	2218.512
741.606	2227.544
741.939	2236.556
742.273	2245.544
742.606	2254.500
742.940	2263.420
743.273	2272.298
743.607	2281.128
743.940	2289.905
744.273	2298.624
744.607	2307.278
744.940	2315.864
745.274	2324.375
745.607	2332.807
745.941	2341.154
746.274	2349.413
746.607	2357.577
746.941	2365.643
747.274	2373.605
747.608	2381.459
747.941	2389.201
748.275	2396.826
748.608	2404.330
748.941	2411.709
749.275	2418.959
749.608	2426.076
749.942	2433.056
750.275	2439.895
750.609	2446.590
750.942	2453.137
751.275	2459.532
751.609	2465.773
751.942	2471.857
752.276	2477.779
752.609	2483.537
752.943	2489.128
753.276	2494.550
753.609	2499.800
753.943	2504.874
754.276	2509.772
754.610	2514.489
754.943	2519.025
755.277	2523.376
755.610	2527.542
755.944	2531.519
756.277	2535.307
756.610	2538.903
756.944	2542.306
757.277	2545.515
757.611	2548.527
757.944	2551.343
758.278	2553.960
758.611	2556.377
758.944	2558.595
759.278	2560.611
759.611	2562.425
759.945	2564.036
760.278	2565.445
760.612	2566.650
760.945	2567.650
761.278	2568.447
761.612	2569.039
761.945	2569.427
762.279	2569.611
762.612	2569.590
762.946	2569.366
763.279	2568.937
763.612	2568.306
763.946	2567.471
764.279	2566.434
764.613	2565.196
764.946	2563.757
765.280	2562.118
765.613	2560.280
765.946	2558.243
766.280	2556.010
766.613	2553.580
766.947	2550.956
767.280	2548.138
767.614	2545.128
767.947	2541.927
768.280	2538.537
768.614	2534.959
768.947	2531.194
769.281	2527.245
769.614	2523.113
769.948	2518.800
770.281	2514.308
770.615	2509.638
