Data from repetition_0.txt_16-47-09-365.txt Node
Date: Sun Jun 13 23:27:09 CET 2021
User: fcossio
Spectrometer: FLMS15016
Trigger mode: 0
Integration Time (sec): 3.000000E-1Scans to average: 1
Electric dark correction enabled: true
Nonlinearity correction enabled: false
Boxcar width: 0
XAxis mode: Wavelengths
Number of Pixels in Spectrum: 2048
>>>>>Begin Spectral Data<<<<<
340.154	1012.830
340.487	1013.180
340.821	1016.201
341.154	1014.842
341.488	1014.790
341.821	1015.457
342.155	1015.022
342.488	1015.910
342.821	1016.261
343.155	1015.395
343.488	1017.672
343.822	1016.389
344.155	1017.065
344.489	1018.355
344.822	1017.069
345.155	1018.282
345.489	1017.579
345.822	1018.822
346.156	1019.529
346.489	1019.485
346.823	1019.201
347.156	1019.581
347.490	1020.080
347.823	1020.971
348.156	1019.568
348.490	1021.230
348.823	1021.084
349.157	1022.292
349.490	1021.590
349.824	1021.448
350.157	1021.874
350.490	1023.179
350.824	1022.674
351.157	1023.858
351.491	1024.069
351.824	1023.771
352.158	1023.486
352.491	1025.352
352.824	1025.661
353.158	1023.864
353.491	1025.969
353.825	1025.876
354.158	1025.172
354.492	1026.326
354.825	1025.806
355.158	1025.894
355.492	1026.754
355.825	1027.292
356.159	1027.520
356.492	1027.222
356.826	1028.567
357.159	1027.926
357.492	1028.151
357.826	1028.911
358.159	1028.418
358.493	1029.789
358.826	1029.611
359.160	1030.189
359.493	1029.549
359.826	1030.260
360.160	1030.312
360.493	1031.212
360.827	1031.639
361.160	1032.544
361.494	1032.283
361.827	1032.204
362.161	1032.162
362.494	1032.222
362.827	1032.348
363.161	1033.783
363.494	1033.576
363.828	1033.479
364.161	1032.568
364.495	1035.146
364.828	1034.523
365.161	1033.731
365.495	1034.804
365.828	1034.175
366.162	1035.161
366.495	1034.447
366.829	1035.184
367.162	1036.077
367.495	1036.045
367.829	1036.456
368.162	1036.480
368.496	1036.871
368.829	1037.927
369.163	1036.730
369.496	1037.615
369.829	1037.767
370.163	1038.923
370.496	1038.405
370.830	1039.650
371.163	1038.580
371.497	1038.440
371.830	1039.666
372.163	1039.136
372.497	1040.368
372.830	1040.244
373.164	1040.621
373.497	1040.482
373.831	1041.018
374.164	1042.581
374.497	1041.206
374.831	1042.015
375.164	1042.269
375.498	1042.848
375.831	1042.041
376.165	1043.173
376.498	1043.356
376.832	1041.965
377.165	1043.044
377.498	1043.014
377.832	1043.561
378.165	1043.833
378.499	1044.812
378.832	1045.110
379.166	1044.806
379.499	1044.675
379.832	1044.752
380.166	1046.096
380.499	1045.084
380.833	1046.934
381.166	1046.082
381.500	1045.415
381.833	1046.159
382.166	1047.213
382.500	1046.550
382.833	1047.613
383.167	1047.592
383.500	1047.349
383.834	1048.022
384.167	1047.627
384.500	1047.873
384.834	1048.287
385.167	1048.892
385.501	1048.926
385.834	1048.504
386.168	1051.291
386.501	1050.543
386.834	1049.180
387.168	1051.007
387.501	1050.814
387.835	1049.943
388.168	1051.171
388.502	1051.339
388.835	1051.276
389.168	1051.239
389.502	1052.325
389.835	1051.875
390.169	1053.631
390.502	1052.405
390.836	1051.876
391.169	1052.784
391.503	1052.965
391.836	1052.281
392.169	1053.442
392.503	1054.506
392.836	1053.957
393.170	1054.462
393.503	1054.035
393.837	1054.308
394.170	1055.191
394.503	1054.778
394.837	1056.293
395.170	1055.216
395.504	1055.114
395.837	1056.878
396.171	1057.053
396.504	1056.692
396.837	1056.518
397.171	1056.450
397.504	1057.614
397.838	1057.866
398.171	1057.082
398.505	1058.247
398.838	1058.631
399.171	1057.643
399.505	1058.377
399.838	1058.092
400.172	1058.033
400.505	1059.157
400.839	1059.642
401.172	1059.645
401.505	1059.569
401.839	1060.106
402.172	1059.968
402.506	1059.774
402.839	1061.224
403.173	1060.928
403.506	1060.543
403.839	1060.717
404.173	1061.209
404.506	1061.307
404.840	1062.576
405.173	1061.378
405.507	1062.146
405.840	1062.213
406.174	1062.610
406.507	1063.068
406.840	1062.400
407.174	1063.285
407.507	1062.607
407.841	1063.900
408.174	1064.126
408.508	1063.519
408.841	1063.589
409.174	1064.571
409.508	1063.869
409.841	1065.447
410.175	1065.026
410.508	1064.809
410.842	1065.679
411.175	1065.582
411.508	1065.537
411.842	1065.964
412.175	1066.751
412.509	1065.611
412.842	1066.885
413.176	1065.605
413.509	1067.211
413.842	1067.181
414.176	1066.463
414.509	1067.403
414.843	1067.784
415.176	1067.629
415.510	1067.995
415.843	1067.818
416.176	1068.465
416.510	1068.655
416.843	1068.838
417.177	1068.667
417.510	1068.849
417.844	1068.680
418.177	1069.527
418.510	1069.145
418.844	1069.804
419.177	1069.286
419.511	1069.626
419.844	1070.441
420.178	1071.204
420.511	1071.383
420.845	1071.217
421.178	1071.145
421.511	1071.665
421.845	1071.401
422.178	1071.413
422.512	1071.441
422.845	1072.180
423.179	1073.132
423.512	1072.178
423.845	1072.391
424.179	1072.959
424.512	1072.274
424.846	1073.143
425.179	1072.549
425.513	1072.910
425.846	1074.186
426.179	1074.009
426.513	1074.523
426.846	1073.861
427.180	1074.642
427.513	1075.186
427.847	1074.313
428.180	1075.391
428.513	1074.351
428.847	1074.870
429.180	1076.303
429.514	1075.489
429.847	1075.815
430.181	1075.575
430.514	1076.160
430.847	1075.113
431.181	1075.537
431.514	1076.517
431.848	1075.413
432.181	1076.812
432.515	1076.340
432.848	1076.467
433.181	1076.911
433.515	1076.882
433.848	1077.760
434.182	1077.161
434.515	1077.602
434.849	1078.525
435.182	1077.736
435.516	1077.779
435.849	1078.326
436.182	1079.393
436.516	1078.574
436.849	1079.293
437.183	1078.531
437.516	1079.388
437.850	1079.806
438.183	1079.734
438.516	1080.033
438.850	1080.182
439.183	1079.639
439.517	1079.586
439.850	1080.479
440.184	1078.919
440.517	1080.671
440.850	1080.231
441.184	1080.313
441.517	1080.863
441.851	1080.131
442.184	1081.337
442.518	1081.638
442.851	1081.707
443.184	1082.200
443.518	1082.477
443.851	1081.350
444.185	1081.520
444.518	1081.899
444.852	1082.616
445.185	1082.824
445.518	1082.347
445.852	1082.039
446.185	1082.177
446.519	1083.444
446.852	1083.983
447.186	1083.460
447.519	1084.287
447.852	1084.708
448.186	1084.028
448.519	1083.079
448.853	1084.154
449.186	1084.829
449.520	1085.468
449.853	1084.728
450.187	1084.452
450.520	1084.717
450.853	1085.652
451.187	1083.258
451.520	1084.862
451.854	1085.221
452.187	1085.224
452.521	1085.331
452.854	1085.559
453.187	1085.675
453.521	1085.705
453.854	1085.991
454.188	1085.163
454.521	1085.741
454.855	1086.416
455.188	1086.236
455.521	1086.597
455.855	1086.405
456.188	1087.072
456.522	1087.859
456.855	1087.170
457.189	1087.285
457.522	1087.894
457.855	1086.977
458.189	1088.142
458.522	1088.135
458.856	1087.500
459.189	1087.836
459.523	1087.624
459.856	1088.231
460.189	1089.392
460.523	1088.815
460.856	1088.496
461.190	1088.799
461.523	1088.984
461.857	1088.726
462.190	1088.959
462.523	1088.600
462.857	1088.911
463.190	1089.531
463.524	1089.877
463.857	1090.114
464.191	1089.520
464.524	1089.344
464.858	1089.456
465.191	1089.587
465.524	1088.809
465.858	1089.404
466.191	1090.623
466.525	1090.430
466.858	1091.715
467.192	1091.100
467.525	1091.887
467.858	1090.150
468.192	1090.581
468.525	1091.797
468.859	1090.967
469.192	1091.711
469.526	1092.365
469.859	1092.133
470.192	1091.266
470.526	1091.967
470.859	1092.254
471.193	1090.651
471.526	1092.583
471.860	1092.279
472.193	1092.221
472.526	1092.558
472.860	1091.918
473.193	1092.832
473.527	1092.875
473.860	1092.601
474.194	1092.385
474.527	1093.141
474.860	1092.729
475.194	1093.085
475.527	1091.895
475.861	1093.651
476.194	1093.585
476.528	1092.799
476.861	1094.088
477.194	1093.131
477.528	1094.392
477.861	1094.329
478.195	1094.681
478.528	1093.432
478.862	1093.870
479.195	1094.528
479.529	1093.279
479.862	1093.702
480.195	1093.834
480.529	1094.474
480.862	1095.138
481.196	1094.941
481.529	1095.135
481.863	1095.408
482.196	1095.120
482.529	1093.888
482.863	1094.919
483.196	1094.333
483.530	1095.055
483.863	1093.947
484.197	1094.810
484.530	1095.648
484.863	1096.093
485.197	1095.053
485.530	1095.136
485.864	1095.203
486.197	1095.719
486.531	1095.870
486.864	1096.478
487.197	1095.110
487.531	1096.810
487.864	1095.008
488.198	1095.572
488.531	1096.428
488.865	1096.062
489.198	1096.510
489.531	1096.519
489.865	1096.680
490.198	1096.520
490.532	1097.341
490.865	1097.040
491.199	1097.099
491.532	1096.550
491.865	1097.037
492.199	1098.299
492.532	1097.075
492.866	1098.007
493.199	1097.221
493.533	1097.930
493.866	1097.511
494.200	1096.787
494.533	1097.449
494.866	1096.962
495.200	1097.206
495.533	1098.175
495.867	1097.041
496.200	1098.159
496.534	1097.216
496.867	1097.834
497.200	1097.825
497.534	1098.491
497.867	1098.375
498.201	1098.693
498.534	1098.470
498.868	1098.543
499.201	1098.011
499.534	1098.079
499.868	1098.935
500.201	1098.308
500.535	1098.573
500.868	1098.800
501.202	1098.536
501.535	1099.497
501.868	1099.698
502.202	1098.888
502.535	1098.935
502.869	1099.730
503.202	1099.349
503.536	1098.546
503.869	1098.863
504.202	1100.161
504.536	1098.936
504.869	1099.792
505.203	1098.945
505.536	1099.649
505.870	1099.738
506.203	1099.116
506.536	1100.528
506.870	1098.827
507.203	1100.579
507.537	1099.302
507.870	1099.766
508.204	1100.269
508.537	1099.949
508.871	1099.772
509.204	1099.663
509.537	1100.051
509.871	1100.306
510.204	1100.170
510.538	1099.617
510.871	1099.834
511.205	1101.397
511.538	1099.388
511.871	1100.093
512.205	1100.950
512.538	1099.789
512.872	1101.131
513.205	1099.460
513.539	1100.073
513.872	1100.821
514.205	1101.086
514.539	1100.276
514.872	1100.101
515.206	1100.945
515.539	1100.641
515.873	1101.796
516.206	1100.622
516.539	1100.587
516.873	1101.345
517.206	1101.874
517.540	1101.068
517.873	1101.666
518.207	1100.845
518.540	1100.596
518.873	1100.527
519.207	1100.530
519.540	1100.646
519.874	1101.628
520.207	1100.919
520.541	1101.495
520.874	1102.085
521.207	1100.934
521.541	1101.710
521.874	1100.996
522.208	1100.860
522.541	1100.940
522.875	1102.196
523.208	1102.211
523.542	1101.716
523.875	1101.520
524.208	1101.898
524.542	1101.110
524.875	1100.731
525.209	1101.158
525.542	1101.894
525.876	1102.071
526.209	1101.201
526.542	1100.589
526.876	1100.692
527.209	1101.120
527.543	1101.786
527.876	1102.086
528.210	1101.918
528.543	1101.704
528.876	1101.402
529.210	1101.696
529.543	1101.656
529.877	1102.291
530.210	1101.593
530.544	1101.357
530.877	1102.163
531.210	1100.991
531.544	1100.675
531.877	1101.659
532.211	1101.798
532.544	1101.294
532.878	1102.389
533.211	1101.037
533.544	1101.716
533.878	1101.961
534.211	1102.140
534.545	1100.756
534.878	1100.938
535.212	1101.843
535.545	1102.193
535.878	1101.767
536.212	1101.302
536.545	1101.047
536.879	1101.470
537.212	1101.586
537.546	1101.378
537.879	1101.809
538.213	1101.975
538.546	1101.107
538.879	1100.480
539.213	1102.284
539.546	1101.547
539.880	1101.501
540.213	1101.651
540.547	1102.001
540.880	1101.819
541.213	1102.375
541.547	1102.228
541.880	1101.147
542.214	1102.148
542.547	1101.757
542.881	1101.870
543.214	1100.959
543.547	1101.328
543.881	1101.964
544.214	1101.621
544.548	1101.789
544.881	1101.127
545.215	1101.210
545.548	1101.184
545.881	1100.882
546.215	1100.264
546.548	1101.159
546.882	1100.629
547.215	1101.672
547.549	1101.031
547.882	1101.063
548.215	1101.149
548.549	1099.901
548.882	1101.163
549.216	1100.839
549.549	1101.091
549.883	1101.874
550.216	1101.240
550.549	1100.499
550.883	1101.224
551.216	1100.955
551.550	1101.521
551.883	1100.984
552.217	1100.342
552.550	1100.966
552.884	1100.788
553.217	1101.143
553.550	1100.541
553.884	1100.301
554.217	1100.746
554.551	1101.936
554.884	1100.994
555.218	1101.274
555.551	1100.477
555.884	1101.500
556.218	1100.987
556.551	1100.189
556.885	1100.809
557.218	1100.448
557.552	1099.723
557.885	1100.617
558.218	1100.484
558.552	1100.445
558.885	1100.494
559.219	1099.405
559.552	1100.908
559.886	1100.169
560.219	1099.682
560.552	1100.143
560.886	1099.964
561.219	1100.128
561.553	1099.437
561.886	1099.511
562.220	1099.438
562.553	1099.195
562.886	1099.661
563.220	1099.797
563.553	1100.519
563.887	1098.606
564.220	1099.745
564.554	1098.489
564.887	1099.134
565.220	1098.933
565.554	1099.252
565.887	1099.452
566.221	1099.899
566.554	1100.228
566.888	1099.057
567.221	1099.963
567.555	1099.653
567.888	1098.364
568.221	1099.241
568.555	1099.804
568.888	1098.597
569.222	1098.358
569.555	1098.408
569.889	1098.766
570.222	1099.610
570.555	1099.262
570.889	1098.613
571.222	1097.668
571.556	1099.060
571.889	1098.352
572.223	1098.136
572.556	1098.856
572.889	1097.361
573.223	1098.052
573.556	1098.389
573.890	1098.000
574.223	1099.064
574.557	1098.709
574.890	1098.973
575.223	1098.057
575.557	1096.721
575.890	1098.048
576.224	1098.618
576.557	1098.156
576.891	1097.640
577.224	1097.434
577.557	1098.327
577.891	1097.306
578.224	1096.922
578.558	1096.106
578.891	1097.024
579.225	1097.213
579.558	1097.220
579.892	1096.478
580.225	1096.768
580.558	1096.446
580.892	1097.128
581.225	1095.941
581.559	1096.179
581.892	1095.968
582.226	1097.006
582.559	1096.635
582.892	1096.241
583.226	1096.590
583.559	1096.383
583.893	1097.043
584.226	1095.772
584.560	1095.467
584.893	1095.932
585.226	1095.545
585.560	1095.844
585.893	1096.029
586.227	1095.548
586.560	1095.845
586.894	1094.785
587.227	1095.070
587.560	1094.880
587.894	1095.048
588.227	1095.668
588.561	1094.121
588.894	1095.293
589.228	1094.638
589.561	1094.632
589.894	1093.870
590.228	1094.972
590.561	1094.244
590.895	1094.259
591.228	1093.964
591.562	1093.928
591.895	1094.059
592.228	1093.988
592.562	1094.737
592.895	1093.727
593.229	1093.538
593.562	1093.397
593.896	1093.900
594.229	1092.483
594.563	1093.614
594.896	1092.991
595.229	1091.880
595.563	1093.592
595.896	1093.929
596.230	1092.784
596.563	1093.198
596.897	1093.359
597.230	1091.909
597.563	1092.282
597.897	1092.323
598.230	1092.809
598.564	1092.183
598.897	1092.686
599.231	1092.041
599.564	1092.275
599.897	1091.751
600.231	1092.456
600.564	1091.259
600.898	1090.870
601.231	1090.389
601.565	1090.771
601.898	1090.953
602.231	1090.669
602.565	1090.419
602.898	1089.891
603.232	1091.000
603.565	1089.674
603.899	1091.013
604.232	1090.872
604.565	1089.761
604.899	1089.905
605.232	1089.923
605.566	1089.086
605.899	1090.285
606.233	1089.296
606.566	1089.358
606.899	1089.776
607.233	1089.289
607.566	1090.304
607.900	1090.234
608.233	1088.935
608.567	1088.257
608.900	1088.816
609.234	1087.912
609.567	1088.437
609.900	1088.368
610.234	1089.032
610.567	1088.886
610.901	1088.374
611.234	1087.961
611.568	1088.450
611.901	1087.059
612.234	1087.151
612.568	1088.021
612.901	1087.664
613.235	1087.449
613.568	1086.884
613.902	1086.511
614.235	1087.127
614.568	1087.503
614.902	1086.721
615.235	1085.608
615.569	1086.301
615.902	1086.495
616.236	1086.627
616.569	1086.873
616.902	1087.016
617.236	1084.856
617.569	1085.581
617.903	1085.245
618.236	1085.781
618.570	1086.012
618.903	1085.642
619.236	1084.937
619.570	1084.730
619.903	1085.389
620.237	1084.584
620.570	1084.592
620.904	1084.675
621.237	1083.396
621.570	1085.244
621.904	1083.817
622.237	1083.934
622.571	1084.270
622.904	1084.197
623.238	1083.215
623.571	1083.131
623.905	1083.435
624.238	1083.721
624.571	1083.444
624.905	1082.479
625.238	1081.998
625.572	1082.645
625.905	1081.995
626.239	1081.843
626.572	1082.480
626.905	1082.484
627.239	1081.600
627.572	1082.601
627.906	1081.355
628.239	1081.472
628.573	1081.306
628.906	1081.006
629.239	1080.804
629.573	1080.309
629.906	1080.942
630.240	1079.925
630.573	1079.544
630.907	1080.842
631.240	1079.644
631.573	1079.288
631.907	1079.641
632.240	1078.590
632.574	1079.745
632.907	1079.834
633.241	1079.527
633.574	1079.194
633.907	1079.452
634.241	1078.255
634.574	1078.690
634.908	1078.576
635.241	1078.960
635.575	1077.279
635.908	1077.332
636.241	1076.907
636.575	1076.970
636.908	1077.887
637.242	1077.458
637.575	1077.502
637.909	1078.077
638.242	1077.158
638.576	1077.564
638.909	1075.637
639.242	1076.271
639.576	1076.216
639.909	1075.521
640.243	1074.561
640.576	1076.312
640.910	1075.362
641.243	1076.059
641.576	1074.187
641.910	1075.141
642.243	1074.179
642.577	1074.724
642.910	1074.465
643.244	1073.575
643.577	1074.049
643.910	1072.699
644.244	1073.454
644.577	1074.387
644.911	1073.723
645.244	1073.631
645.578	1073.685
645.911	1072.824
646.244	1072.917
646.578	1072.916
646.911	1072.950
647.245	1072.681
647.578	1072.249
647.912	1072.089
648.245	1072.065
648.578	1071.699
648.912	1070.776
649.245	1071.338
649.579	1070.710
649.912	1070.984
650.246	1070.321
650.579	1069.980
650.912	1070.409
651.246	1070.793
651.579	1069.780
651.913	1070.347
652.246	1070.444
652.580	1070.265
652.913	1069.666
653.247	1067.896
653.580	1068.062
653.913	1068.685
654.247	1067.448
654.580	1068.265
654.914	1068.680
655.247	1069.030
655.581	1068.503
655.914	1067.650
656.247	1067.105
656.581	1067.700
656.914	1067.427
657.248	1067.595
657.581	1066.148
657.915	1066.239
658.248	1066.453
658.581	1065.992
658.915	1065.919
659.248	1066.191
659.582	1065.667
659.915	1066.132
660.249	1064.879
660.582	1063.708
660.915	1064.476
661.249	1064.123
661.582	1063.479
661.916	1064.198
662.249	1063.323
662.583	1064.350
662.916	1063.813
663.249	1064.842
663.583	1063.330
663.916	1062.466
664.250	1061.931
664.583	1063.398
664.917	1061.874
665.250	1061.646
665.583	1061.782
665.917	1062.298
666.250	1061.715
666.584	1061.272
666.917	1060.731
667.251	1061.164
667.584	1060.525
667.918	1060.852
668.251	1059.824
668.584	1059.790
668.918	1059.571
669.251	1059.846
669.585	1059.872
669.918	1059.588
670.252	1060.860
670.585	1059.302
670.918	1058.598
671.252	1057.642
671.585	1058.739
671.919	1058.218
672.252	1057.338
672.586	1057.804
672.919	1057.885
673.252	1056.765
673.586	1057.602
673.919	1057.027
674.253	1056.372
674.586	1056.043
674.920	1056.079
675.253	1055.864
675.586	1056.036
675.920	1056.077
676.253	1055.930
676.587	1055.606
676.920	1055.319
677.254	1054.795
677.587	1053.758
677.920	1053.602
678.254	1054.545
678.587	1052.927
678.921	1054.214
679.254	1054.019
679.588	1054.065
679.921	1051.273
680.254	1051.879
680.588	1052.100
680.921	1053.010
681.255	1051.893
681.588	1051.230
681.922	1052.240
682.255	1051.590
682.589	1051.039
682.922	1050.717
683.255	1050.844
683.589	1051.565
683.922	1050.574
684.256	1050.293
684.589	1050.076
684.923	1049.706
685.256	1049.239
685.589	1049.613
685.923	1048.818
686.256	1049.270
686.590	1048.163
686.923	1047.946
687.257	1047.932
687.590	1047.874
687.923	1047.647
688.257	1046.747
688.590	1047.547
688.924	1047.442
689.257	1047.025
689.591	1046.629
689.924	1046.136
690.257	1045.534
690.591	1044.714
690.924	1045.169
691.258	1044.886
691.591	1045.670
691.925	1045.163
692.258	1045.010
692.591	1045.020
692.925	1043.650
693.258	1043.658
693.592	1043.529
693.925	1043.787
694.259	1042.691
694.592	1043.493
694.925	1042.476
695.259	1042.858
695.592	1041.464
695.926	1042.209
696.259	1041.897
696.593	1040.400
696.926	1041.341
697.260	1040.673
697.593	1041.359
697.926	1040.572
698.260	1040.273
698.593	1040.040
698.927	1038.841
699.260	1039.076
699.594	1039.906
699.927	1038.546
700.260	1038.446
700.594	1039.260
700.927	1037.432
701.261	1037.053
701.594	1037.871
701.928	1037.494
702.261	1036.085
702.594	1037.261
702.928	1035.821
703.261	1036.538
703.595	1036.372
703.928	1036.017
704.262	1035.941
704.595	1036.174
704.928	1034.931
705.262	1034.428
705.595	1034.294
705.929	1034.516
706.262	1033.004
706.596	1034.274
706.929	1034.234
707.262	1032.576
707.596	1033.471
707.929	1032.823
708.263	1033.151
708.596	1032.177
708.930	1031.437
709.263	1031.080
709.596	1031.020
709.930	1031.982
710.263	1030.551
710.597	1032.163
710.930	1030.417
711.264	1030.575
711.597	1029.939
711.931	1029.151
712.264	1029.530
712.597	1028.165
712.931	1028.677
713.264	1028.884
713.598	1027.803
713.931	1028.407
714.265	1026.982
714.598	1027.687
714.931	1027.153
715.265	1027.030
715.598	1026.960
715.932	1026.072
716.265	1025.938
716.599	1024.671
716.932	1025.667
717.265	1026.795
717.599	1025.190
717.932	1023.801
718.266	1024.285
718.599	1023.998
718.933	1024.099
719.266	1023.265
719.599	1022.632
719.933	1022.298
720.266	1023.636
720.600	1022.351
720.933	1023.093
721.267	1022.866
721.600	1021.755
721.933	1021.243
722.267	1021.616
722.600	1020.392
722.934	1020.328
723.267	1020.535
723.601	1018.958
723.934	1019.495
724.267	1019.898
724.601	1019.583
