Data from repetition_3.txt_16-47-09-365.txt Node
Date: Sun Jun 13 23:27:09 CET 2021
User: fcossio
Spectrometer: FLMS15016
Trigger mode: 0
Integration Time (sec): 3.000000E-1Scans to average: 1
Electric dark correction enabled: true
Nonlinearity correction enabled: false
Boxcar width: 0
XAxis mode: Wavelengths
Number of Pixels in Spectrum: 2048
>>>>>Begin Spectral Data<<<<<
340.154	1016.073
340.487	1014.928
340.821	1016.270
341.154	1016.901
341.488	1017.492
341.821	1017.818
342.155	1018.556
342.488	1017.858
342.821	1017.500
343.155	1018.361
343.488	1018.052
343.822	1019.096
344.155	1019.586
344.489	1018.562
344.822	1019.009
345.155	1020.027
345.489	1020.694
345.822	1020.866
346.156	1021.179
346.489	1020.057
346.823	1020.880
347.156	1020.417
347.490	1022.765
347.823	1022.016
348.156	1023.611
348.490	1023.247
348.823	1022.963
349.157	1023.336
349.490	1023.304
349.824	1024.000
350.157	1025.054
350.490	1025.791
350.824	1025.434
351.157	1025.131
351.491	1026.677
351.824	1026.152
352.158	1026.068
352.491	1025.970
352.824	1026.910
353.158	1026.407
353.491	1026.190
353.825	1027.700
354.158	1027.580
354.492	1027.331
354.825	1029.058
355.158	1029.286
355.492	1028.626
355.825	1030.214
356.159	1029.886
356.492	1028.874
356.826	1030.182
357.159	1030.193
357.492	1029.828
357.826	1031.892
358.159	1029.888
358.493	1030.701
358.826	1031.065
359.160	1032.088
359.493	1031.890
359.826	1032.801
360.160	1032.423
360.493	1033.554
360.827	1032.957
361.160	1033.375
361.494	1033.401
361.827	1033.569
362.161	1032.841
362.494	1033.761
362.827	1034.497
363.161	1034.591
363.494	1036.624
363.828	1035.249
364.161	1035.727
364.495	1035.813
364.828	1036.957
365.161	1036.959
365.495	1036.720
365.828	1036.877
366.162	1038.879
366.495	1037.529
366.829	1037.947
367.162	1036.841
367.495	1039.596
367.829	1038.457
368.162	1039.190
368.496	1039.310
368.829	1039.203
369.163	1038.893
369.496	1039.354
369.829	1039.649
370.163	1040.158
370.496	1039.653
370.830	1040.678
371.163	1041.023
371.497	1042.301
371.830	1041.720
372.163	1042.690
372.497	1041.274
372.830	1042.949
373.164	1042.690
373.497	1043.058
373.831	1043.924
374.164	1043.778
374.497	1042.785
374.831	1043.986
375.164	1044.845
375.498	1044.660
375.831	1043.894
376.165	1044.660
376.498	1044.957
376.832	1045.500
377.165	1045.600
377.498	1044.822
377.832	1047.358
378.165	1046.759
378.499	1047.132
378.832	1047.392
379.166	1047.142
379.499	1046.068
379.832	1046.901
380.166	1048.792
380.499	1047.555
380.833	1048.704
381.166	1048.884
381.500	1047.466
381.833	1048.847
382.166	1048.840
382.500	1049.171
382.833	1048.976
383.167	1050.539
383.500	1050.330
383.834	1050.280
384.167	1051.616
384.500	1051.004
384.834	1051.427
385.167	1051.774
385.501	1051.852
385.834	1052.495
386.168	1052.455
386.501	1052.708
386.834	1051.604
387.168	1053.305
387.501	1052.645
387.835	1053.226
388.168	1053.922
388.502	1053.628
388.835	1054.420
389.168	1054.746
389.502	1053.016
389.835	1054.550
390.169	1054.843
390.502	1055.702
390.836	1054.858
391.169	1055.249
391.503	1054.931
391.836	1054.719
392.169	1055.814
392.503	1057.235
392.836	1055.921
393.170	1056.852
393.503	1056.652
393.837	1056.819
394.170	1058.435
394.503	1057.347
394.837	1057.445
395.170	1057.705
395.504	1058.673
395.837	1057.113
396.171	1058.254
396.504	1059.196
396.837	1059.081
397.171	1059.730
397.504	1059.234
397.838	1059.586
398.171	1059.809
398.505	1059.736
398.838	1061.093
399.171	1060.120
399.505	1061.259
399.838	1061.270
400.172	1060.526
400.505	1060.328
400.839	1060.440
401.172	1061.892
401.505	1062.047
401.839	1063.139
402.172	1062.518
402.506	1062.101
402.839	1063.319
403.173	1061.988
403.506	1063.424
403.839	1063.191
404.173	1063.993
404.506	1064.386
404.840	1063.821
405.173	1064.658
405.507	1063.791
405.840	1064.410
406.174	1064.349
406.507	1064.563
406.840	1064.724
407.174	1065.574
407.507	1064.621
407.841	1065.715
408.174	1065.509
408.508	1067.701
408.841	1065.990
409.174	1065.969
409.508	1066.857
409.841	1066.697
410.175	1068.063
410.508	1066.849
410.842	1066.739
411.175	1068.593
411.508	1068.563
411.842	1068.742
412.175	1068.167
412.509	1067.992
412.842	1067.452
413.176	1069.020
413.509	1069.480
413.842	1068.832
414.176	1068.570
414.509	1070.448
414.843	1070.346
415.176	1070.169
415.510	1071.262
415.843	1071.546
416.176	1070.114
416.510	1071.070
416.843	1070.680
417.177	1071.939
417.510	1071.675
417.844	1072.075
418.177	1070.617
418.510	1071.915
418.844	1073.023
419.177	1071.513
419.511	1072.118
419.844	1072.585
420.178	1072.300
420.511	1073.307
420.845	1072.273
421.178	1072.749
421.511	1074.274
421.845	1073.498
422.178	1073.391
422.512	1073.976
422.845	1074.074
423.179	1074.439
423.512	1074.265
423.845	1074.615
424.179	1075.435
424.512	1075.304
424.846	1074.775
425.179	1075.129
425.513	1075.450
425.846	1076.150
426.179	1075.446
426.513	1075.801
426.846	1076.178
427.180	1075.110
427.513	1076.632
427.847	1076.007
428.180	1076.420
428.513	1076.720
428.847	1077.617
429.180	1077.779
429.514	1077.810
429.847	1077.927
430.181	1077.884
430.514	1077.841
430.847	1077.694
431.181	1078.036
431.514	1079.030
431.848	1078.330
432.181	1078.341
432.515	1078.870
432.848	1078.269
433.181	1078.435
433.515	1079.815
433.848	1080.222
434.182	1079.904
434.515	1078.158
434.849	1080.142
435.182	1080.529
435.516	1080.775
435.849	1080.395
436.182	1080.873
436.516	1080.133
436.849	1081.028
437.183	1081.965
437.516	1080.899
437.850	1081.682
438.183	1082.279
438.516	1081.823
438.850	1082.026
439.183	1082.647
439.517	1081.069
439.850	1081.984
440.184	1082.264
440.517	1082.890
440.850	1083.020
441.184	1083.312
441.517	1084.446
441.851	1082.460
442.184	1084.408
442.518	1083.329
442.851	1084.095
443.184	1083.011
443.518	1083.338
443.851	1083.637
444.185	1084.562
444.518	1084.457
444.852	1084.395
445.185	1084.784
445.518	1083.962
445.852	1084.802
446.185	1085.373
446.519	1084.734
446.852	1084.943
447.186	1085.674
447.519	1085.168
447.852	1086.060
448.186	1085.622
448.519	1086.905
448.853	1085.626
449.186	1086.300
449.520	1086.186
449.853	1086.229
450.187	1086.624
450.520	1086.986
450.853	1086.232
451.187	1086.530
451.520	1088.125
451.854	1086.428
452.187	1087.496
452.521	1087.204
452.854	1087.270
453.187	1087.701
453.521	1087.294
453.854	1087.830
454.188	1088.721
454.521	1089.300
454.855	1088.823
455.188	1088.695
455.521	1088.145
455.855	1088.438
456.188	1088.784
456.522	1088.991
456.855	1088.419
457.189	1089.565
457.522	1089.690
457.855	1090.166
458.189	1089.635
458.522	1088.964
458.856	1090.209
459.189	1090.815
459.523	1089.681
459.856	1090.697
460.189	1091.014
460.523	1090.437
460.856	1090.726
461.190	1090.108
461.523	1091.255
461.857	1091.588
462.190	1091.557
462.523	1091.207
462.857	1091.655
463.190	1091.910
463.524	1092.097
463.857	1091.514
464.191	1092.073
464.524	1092.158
464.858	1092.199
465.191	1092.947
465.524	1091.727
465.858	1093.533
466.191	1092.554
466.525	1092.624
466.858	1092.670
467.192	1092.816
467.525	1094.030
467.858	1093.795
468.192	1092.889
468.525	1093.178
468.859	1093.139
469.192	1094.619
469.526	1093.894
469.859	1092.631
470.192	1093.316
470.526	1093.455
470.859	1093.337
471.193	1094.177
471.526	1094.070
471.860	1095.080
472.193	1094.347
472.526	1095.896
472.860	1094.954
473.193	1095.623
473.527	1095.066
473.860	1094.999
474.194	1094.671
474.527	1095.607
474.860	1094.314
475.194	1096.325
475.527	1095.740
475.861	1095.840
476.194	1095.787
476.528	1095.856
476.861	1095.651
477.194	1096.293
477.528	1096.443
477.861	1095.320
478.195	1096.323
478.528	1096.820
478.862	1096.499
479.195	1096.521
479.529	1096.657
479.862	1096.670
480.195	1096.599
480.529	1096.017
480.862	1096.314
481.196	1096.077
481.529	1097.505
481.863	1097.664
482.196	1096.915
482.529	1097.725
482.863	1096.747
483.196	1097.856
483.530	1097.048
483.863	1097.924
484.197	1097.690
484.530	1097.780
484.863	1097.343
485.197	1097.748
485.530	1098.870
485.864	1098.133
486.197	1097.367
486.531	1097.192
486.864	1098.703
487.197	1098.858
487.531	1098.074
487.864	1097.537
488.198	1097.947
488.531	1098.371
488.865	1099.528
489.198	1098.058
489.531	1098.825
489.865	1098.566
490.198	1099.315
490.532	1099.436
490.865	1098.346
491.199	1099.903
491.532	1099.798
491.865	1099.306
492.199	1099.804
492.532	1098.996
492.866	1100.092
493.199	1100.328
493.533	1100.257
493.866	1099.228
494.200	1100.203
494.533	1100.257
494.866	1100.063
495.200	1099.800
495.533	1099.340
495.867	1100.045
496.200	1100.312
496.534	1099.363
496.867	1100.531
497.200	1100.276
497.534	1100.470
497.867	1100.604
498.201	1099.933
498.534	1101.088
498.868	1100.399
499.201	1099.783
499.534	1100.413
499.868	1100.838
500.201	1101.466
500.535	1100.968
500.868	1100.805
501.202	1100.868
501.535	1100.949
501.868	1101.075
502.202	1100.443
502.535	1101.889
502.869	1101.884
503.202	1101.492
503.536	1101.880
503.869	1101.181
504.202	1101.808
504.536	1100.857
504.869	1100.788
505.203	1101.798
505.536	1101.699
505.870	1100.447
506.203	1101.468
506.536	1102.621
506.870	1101.785
507.203	1102.586
507.537	1102.585
507.870	1101.986
508.204	1102.291
508.537	1101.715
508.871	1102.098
509.204	1102.680
509.537	1100.909
509.871	1101.970
510.204	1102.681
510.538	1103.300
510.871	1102.068
511.205	1102.625
511.538	1103.153
511.871	1102.528
512.205	1102.789
512.538	1102.964
512.872	1103.845
513.205	1102.152
513.539	1102.967
513.872	1102.889
514.205	1102.796
514.539	1103.584
514.872	1103.621
515.206	1102.443
515.539	1102.236
515.873	1102.779
516.206	1103.024
516.539	1103.373
516.873	1103.125
517.206	1102.797
517.540	1102.007
517.873	1102.625
518.207	1102.613
518.540	1103.289
518.873	1103.817
519.207	1103.503
519.540	1103.103
519.874	1103.081
520.207	1103.590
520.541	1103.625
520.874	1102.906
521.207	1103.966
521.541	1104.078
521.874	1102.618
522.208	1104.099
522.541	1103.279
522.875	1103.931
523.208	1103.472
523.542	1103.884
523.875	1104.328
524.208	1103.710
524.542	1103.836
524.875	1103.299
525.209	1103.225
525.542	1104.476
525.876	1103.024
526.209	1103.751
526.542	1103.844
526.876	1105.094
527.209	1103.984
527.543	1103.969
527.876	1104.019
528.210	1104.072
528.543	1105.104
528.876	1104.291
529.210	1104.220
529.543	1104.327
529.877	1104.375
530.210	1103.346
530.544	1104.219
530.877	1103.907
531.210	1104.425
531.544	1103.909
531.877	1104.466
532.211	1103.243
532.544	1105.060
532.878	1102.663
533.211	1104.147
533.544	1104.051
533.878	1103.276
534.211	1103.226
534.545	1104.861
534.878	1104.010
535.212	1103.424
535.545	1105.249
535.878	1104.725
536.212	1104.263
536.545	1104.313
536.879	1103.963
537.212	1103.740
537.546	1104.082
537.879	1104.007
538.213	1104.441
538.546	1103.924
538.879	1103.167
539.213	1103.844
539.546	1103.743
539.880	1103.755
540.213	1103.792
540.547	1104.012
540.880	1102.814
541.213	1103.396
541.547	1104.403
541.880	1104.505
542.214	1104.531
542.547	1103.717
542.881	1103.966
543.214	1103.419
543.547	1104.648
543.881	1103.542
544.214	1103.675
544.548	1102.784
544.881	1104.194
545.215	1103.864
545.548	1102.729
545.881	1103.273
546.215	1104.479
546.548	1104.143
546.882	1103.313
547.215	1103.243
547.549	1103.126
547.882	1103.635
548.215	1103.872
548.549	1104.574
548.882	1103.592
549.216	1103.824
549.549	1102.689
549.883	1103.680
550.216	1103.674
550.549	1103.159
550.883	1104.442
551.216	1104.096
551.550	1103.314
551.883	1103.929
552.217	1102.571
552.550	1103.537
552.884	1102.505
553.217	1102.500
553.550	1102.790
553.884	1103.295
554.217	1102.342
554.551	1103.431
554.884	1103.105
555.218	1103.832
555.551	1102.004
555.884	1103.342
556.218	1102.998
556.551	1103.285
556.885	1102.466
557.218	1102.926
557.552	1102.421
557.885	1102.765
558.218	1102.583
558.552	1101.931
558.885	1103.432
559.219	1103.004
559.552	1102.469
559.886	1103.241
560.219	1103.718
560.552	1102.242
560.886	1101.936
561.219	1102.268
561.553	1102.852
561.886	1102.415
562.220	1102.632
562.553	1103.234
562.886	1102.527
563.220	1101.513
563.553	1100.421
563.887	1100.779
564.220	1101.345
564.554	1101.279
564.887	1102.379
565.220	1101.487
565.554	1101.695
565.887	1101.748
566.221	1101.478
566.554	1100.660
566.888	1102.126
567.221	1100.085
567.555	1103.301
567.888	1101.287
568.221	1101.693
568.555	1100.496
568.888	1101.373
569.222	1101.940
569.555	1101.250
569.889	1101.738
570.222	1100.333
570.555	1100.706
570.889	1100.560
571.222	1101.391
571.556	1100.873
571.889	1101.554
572.223	1100.548
572.556	1100.504
572.889	1099.588
573.223	1100.835
573.556	1100.138
573.890	1100.407
574.223	1099.833
574.557	1099.508
574.890	1099.994
575.223	1100.737
575.557	1100.395
575.890	1100.745
576.224	1100.550
576.557	1099.755
576.891	1099.965
577.224	1100.682
577.557	1100.605
577.891	1099.854
578.224	1099.028
578.558	1099.761
578.891	1098.846
579.225	1098.442
579.558	1098.715
579.892	1099.201
580.225	1097.905
580.558	1099.120
580.892	1098.182
581.225	1098.998
581.559	1099.449
581.892	1098.690
582.226	1098.815
582.559	1098.885
582.892	1099.152
583.226	1097.957
583.559	1098.463
583.893	1098.198
584.226	1098.879
584.560	1097.899
584.893	1098.613
585.226	1097.982
585.560	1097.881
585.893	1098.589
586.227	1098.284
586.560	1097.642
586.894	1097.226
587.227	1096.780
587.560	1097.056
587.894	1097.397
588.227	1096.918
588.561	1097.067
588.894	1096.590
589.228	1096.979
589.561	1097.282
589.894	1096.605
590.228	1097.586
590.561	1096.585
590.895	1096.199
591.228	1096.614
591.562	1095.849
591.895	1095.983
592.228	1096.218
592.562	1096.647
592.895	1095.858
593.229	1095.816
593.562	1095.778
593.896	1096.605
594.229	1095.989
594.563	1095.132
594.896	1095.205
595.229	1095.618
595.563	1095.282
595.896	1095.260
596.230	1095.609
596.563	1094.980
596.897	1094.873
597.230	1094.469
597.563	1094.674
597.897	1094.506
598.230	1094.781
598.564	1093.250
598.897	1094.763
599.231	1094.684
599.564	1094.142
599.897	1095.543
600.231	1093.537
600.564	1093.393
600.898	1093.620
601.231	1092.969
601.565	1093.863
601.898	1094.051
602.231	1093.723
602.565	1093.134
602.898	1093.436
603.232	1093.255
603.565	1092.678
603.899	1092.227
604.232	1092.680
604.565	1093.597
604.899	1092.306
605.232	1091.966
605.566	1093.167
605.899	1092.735
606.233	1092.099
606.566	1093.162
606.899	1093.068
607.233	1092.731
607.566	1092.043
607.900	1092.070
608.233	1090.899
608.567	1090.303
608.900	1090.673
609.234	1091.750
609.567	1090.188
609.900	1090.695
610.234	1091.298
610.567	1090.312
610.901	1090.389
611.234	1089.638
611.568	1089.314
611.901	1089.638
612.234	1090.009
612.568	1089.367
612.901	1089.219
613.235	1088.636
613.568	1090.128
613.902	1089.723
614.235	1089.535
614.568	1088.925
614.902	1090.451
615.235	1088.607
615.569	1089.369
615.902	1089.572
616.236	1088.167
616.569	1087.926
616.902	1088.010
617.236	1088.851
617.569	1087.696
617.903	1087.462
618.236	1088.353
618.570	1087.221
618.903	1087.487
619.236	1087.407
619.570	1087.434
619.903	1086.884
620.237	1086.764
620.570	1086.999
620.904	1087.073
621.237	1086.754
621.570	1085.075
621.904	1086.471
622.237	1086.617
622.571	1086.246
622.904	1086.022
623.238	1084.871
623.571	1085.746
623.905	1084.958
624.238	1084.409
624.571	1084.720
624.905	1085.128
625.238	1085.423
625.572	1084.768
625.905	1085.163
626.239	1085.711
626.572	1084.229
626.905	1083.469
627.239	1084.135
627.572	1084.266
627.906	1083.837
628.239	1083.587
628.573	1082.605
628.906	1082.984
629.239	1083.806
629.573	1083.236
629.906	1082.996
630.240	1082.621
630.573	1083.265
630.907	1081.521
631.240	1082.060
631.573	1082.987
631.907	1082.199
632.240	1082.189
632.574	1081.294
632.907	1082.094
633.241	1081.222
633.574	1081.473
633.907	1080.947
634.241	1080.620
634.574	1079.408
634.908	1081.311
635.241	1081.309
635.575	1080.735
635.908	1079.342
636.241	1079.628
636.575	1079.820
636.908	1079.335
637.242	1079.098
637.575	1078.693
637.909	1079.855
638.242	1079.816
638.576	1079.693
638.909	1080.152
639.242	1077.890
639.576	1078.858
639.909	1078.373
640.243	1077.754
640.576	1078.494
640.910	1078.784
641.243	1077.239
641.576	1078.522
641.910	1077.356
642.243	1076.315
642.577	1077.381
642.910	1077.155
643.244	1076.316
643.577	1076.581
643.910	1075.616
644.244	1075.775
644.577	1076.336
644.911	1075.448
645.244	1076.148
645.578	1075.077
645.911	1075.385
646.244	1075.926
646.578	1075.273
646.911	1074.222
647.245	1073.958
647.578	1074.548
647.912	1073.503
648.245	1073.447
648.578	1074.126
648.912	1073.235
649.245	1073.783
649.579	1073.775
649.912	1072.958
650.246	1073.280
650.579	1073.356
650.912	1072.341
651.246	1072.905
651.579	1072.581
651.913	1072.401
652.246	1071.658
652.580	1071.425
652.913	1071.584
653.247	1071.746
653.580	1071.305
653.913	1070.703
654.247	1070.781
654.580	1071.232
654.914	1070.113
655.247	1070.707
655.581	1070.967
655.914	1069.617
656.247	1068.895
656.581	1069.480
656.914	1069.175
657.248	1070.301
657.581	1070.553
657.915	1069.148
658.248	1067.903
658.581	1069.319
658.915	1068.051
659.248	1067.992
659.582	1067.931
659.915	1067.605
660.249	1067.203
660.582	1067.991
660.915	1067.174
661.249	1067.274
661.582	1066.489
661.916	1067.641
662.249	1066.886
662.583	1066.484
662.916	1064.556
663.249	1066.248
663.583	1065.153
663.916	1064.005
664.250	1065.445
664.583	1065.263
664.917	1064.475
665.250	1065.061
665.583	1065.047
665.917	1063.552
666.250	1064.394
666.584	1063.501
666.917	1064.267
667.251	1063.343
667.584	1062.143
667.918	1062.358
668.251	1062.444
668.584	1062.832
668.918	1061.275
669.251	1062.570
669.585	1062.989
669.918	1062.307
670.252	1061.259
670.585	1061.262
670.918	1061.712
671.252	1060.709
671.585	1061.222
671.919	1060.778
672.252	1060.154
672.586	1060.649
672.919	1059.630
673.252	1058.999
673.586	1059.813
673.919	1058.118
674.253	1058.800
674.586	1058.563
674.920	1058.506
675.253	1059.826
675.586	1058.906
675.920	1058.106
676.253	1057.706
676.587	1057.362
676.920	1057.384
677.254	1056.829
677.587	1057.494
677.920	1056.178
678.254	1056.480
678.587	1056.969
678.921	1055.375
679.254	1055.203
679.588	1056.070
679.921	1055.402
680.254	1056.308
680.588	1054.108
680.921	1054.830
681.255	1054.642
681.588	1054.515
681.922	1053.223
682.255	1054.502
682.589	1054.102
682.922	1053.950
683.255	1053.183
683.589	1052.944
683.922	1052.732
684.256	1052.407
684.589	1052.095
684.923	1051.771
685.256	1052.711
685.589	1051.037
685.923	1050.418
686.256	1050.146
686.590	1050.877
686.923	1051.651
687.257	1048.916
687.590	1051.039
687.923	1050.017
688.257	1049.780
688.590	1049.245
688.924	1048.152
689.257	1048.917
689.591	1049.060
689.924	1047.706
690.257	1049.478
690.591	1048.086
690.924	1047.329
691.258	1047.523
691.591	1047.787
691.925	1047.584
692.258	1046.260
692.591	1046.158
692.925	1046.118
693.258	1046.301
693.592	1045.518
693.925	1045.040
694.259	1044.918
694.592	1044.483
694.925	1044.820
695.259	1043.403
695.592	1044.698
695.926	1044.446
696.259	1044.589
696.593	1043.837
696.926	1043.101
697.260	1042.682
697.593	1043.046
697.926	1041.724
698.260	1042.304
698.593	1042.534
698.927	1042.390
699.260	1041.504
699.594	1042.147
699.927	1040.917
700.260	1040.971
700.594	1041.496
700.927	1039.676
701.261	1040.046
701.594	1039.772
701.928	1039.270
702.261	1040.259
702.594	1040.487
702.928	1038.445
703.261	1038.966
703.595	1037.999
703.928	1037.638
704.262	1037.614
704.595	1037.375
704.928	1037.479
705.262	1036.967
705.595	1036.386
705.929	1035.764
706.262	1036.912
706.596	1035.830
706.929	1036.020
707.262	1035.820
707.596	1034.811
707.929	1035.286
708.263	1034.947
708.596	1033.789
708.930	1033.890
709.263	1033.018
709.596	1033.491
709.930	1033.432
710.263	1033.034
710.597	1033.475
710.930	1033.319
711.264	1032.284
711.597	1031.667
711.931	1032.825
712.264	1030.812
712.597	1032.069
712.931	1030.813
713.264	1031.048
713.598	1030.104
713.931	1030.413
714.265	1030.500
714.598	1029.441
714.931	1028.900
715.265	1029.388
715.598	1028.562
715.932	1028.059
716.265	1028.517
716.599	1027.754
716.932	1026.968
717.265	1027.680
717.599	1026.603
717.932	1027.797
718.266	1025.911
718.599	1026.435
718.933	1026.537
719.266	1025.440
719.599	1025.766
719.933	1025.122
720.266	1024.720
720.600	1025.248
720.933	1025.288
721.267	1024.921
721.600	1023.538
721.933	1024.121
722.267	1023.463
722.600	1023.935
722.934	1022.947
723.267	1021.586
723.601	1022.337
723.934	1022.709
724.267	1021.196
724.601	1021.789
