Data from repetition_2.txt_16-47-09-365.txt Node
Date: Sun Jun 13 23:27:09 CET 2021
User: fcossio
Spectrometer: FLMS15016
Trigger mode: 0
Integration Time (sec): 3.000000E-1Scans to average: 1
Electric dark correction enabled: true
Nonlinearity correction enabled: false
Boxcar width: 0
XAxis mode: Wavelengths
Number of Pixels in Spectrum: 2048
>>>>>Begin Spectral Data<<<<<
340.154	1012.257
340.487	1012.561
340.821	1013.002
341.154	1013.200
341.488	1015.145
341.821	1013.804
342.155	1014.829
342.488	1014.666
342.821	1015.191
343.155	1015.376
343.488	1015.360
343.822	1014.962
344.155	1017.256
344.489	1015.573
344.822	1017.180
345.155	1017.500
345.489	1017.603
345.822	1017.259
346.156	1017.487
346.489	1017.589
346.823	1018.643
347.156	1018.847
347.490	1018.453
347.823	1018.103
348.156	1020.503
348.490	1019.449
348.823	1019.440
349.157	1019.984
349.490	1020.587
349.824	1020.445
350.157	1020.368
350.490	1021.271
350.824	1021.771
351.157	1021.859
351.491	1022.970
351.824	1021.976
352.158	1023.453
352.491	1022.549
352.824	1024.154
353.158	1023.062
353.491	1024.326
353.825	1025.023
354.158	1024.741
354.492	1024.502
354.825	1026.043
355.158	1025.055
355.492	1025.849
355.825	1025.124
356.159	1025.549
356.492	1026.999
356.826	1026.122
357.159	1026.807
357.492	1026.943
357.826	1028.269
358.159	1027.620
358.493	1027.455
358.826	1027.922
359.160	1028.876
359.493	1028.859
359.826	1028.872
360.160	1029.843
360.493	1029.177
360.827	1028.508
361.160	1030.312
361.494	1030.929
361.827	1030.566
362.161	1030.841
362.494	1030.910
362.827	1031.026
363.161	1031.438
363.494	1032.153
363.828	1032.916
364.161	1031.600
364.495	1032.167
364.828	1032.783
365.161	1033.791
365.495	1033.218
365.828	1034.332
366.162	1034.502
366.495	1035.046
366.829	1033.696
367.162	1034.801
367.495	1035.214
367.829	1035.482
368.162	1035.589
368.496	1035.757
368.829	1035.168
369.163	1035.418
369.496	1036.707
369.829	1036.276
370.163	1036.786
370.496	1037.785
370.830	1037.731
371.163	1038.210
371.497	1037.637
371.830	1038.141
372.163	1038.589
372.497	1038.656
372.830	1039.101
373.164	1038.801
373.497	1039.735
373.831	1038.482
374.164	1039.979
374.497	1040.318
374.831	1041.092
375.164	1042.010
375.498	1041.310
375.831	1040.891
376.165	1041.901
376.498	1042.404
376.832	1042.574
377.165	1042.415
377.498	1042.771
377.832	1042.568
378.165	1042.687
378.499	1042.841
378.832	1043.626
379.166	1042.907
379.499	1044.965
379.832	1043.653
380.166	1043.972
380.499	1044.581
380.833	1044.557
381.166	1044.799
381.500	1045.004
381.833	1044.741
382.166	1045.625
382.500	1045.789
382.833	1046.831
383.167	1047.653
383.500	1046.481
383.834	1047.460
384.167	1047.895
384.500	1047.014
384.834	1047.779
385.167	1048.812
385.501	1048.059
385.834	1048.182
386.168	1048.849
386.501	1048.321
386.834	1049.250
387.168	1048.922
387.501	1049.772
387.835	1049.230
388.168	1050.564
388.502	1050.007
388.835	1050.802
389.168	1051.678
389.502	1049.789
389.835	1051.153
390.169	1050.948
390.502	1051.014
390.836	1050.944
391.169	1051.448
391.503	1052.278
391.836	1052.586
392.169	1052.739
392.503	1053.184
392.836	1053.233
393.170	1052.908
393.503	1052.732
393.837	1052.918
394.170	1053.672
394.503	1053.456
394.837	1054.481
395.170	1054.334
395.504	1054.567
395.837	1054.162
396.171	1054.733
396.504	1055.926
396.837	1055.791
397.171	1055.453
397.504	1056.554
397.838	1056.377
398.171	1057.413
398.505	1056.566
398.838	1057.512
399.171	1056.532
399.505	1057.029
399.838	1057.407
400.172	1057.383
400.505	1056.871
400.839	1058.407
401.172	1057.801
401.505	1058.326
401.839	1058.371
402.172	1059.483
402.506	1059.042
402.839	1059.662
403.173	1059.143
403.506	1060.694
403.839	1060.170
404.173	1060.517
404.506	1060.590
404.840	1059.761
405.173	1060.391
405.507	1060.636
405.840	1061.580
406.174	1061.077
406.507	1061.902
406.840	1061.251
407.174	1061.802
407.507	1062.532
407.841	1062.686
408.174	1061.813
408.508	1063.095
408.841	1062.499
409.174	1063.951
409.508	1063.635
409.841	1063.885
410.175	1064.272
410.508	1064.144
410.842	1063.559
411.175	1063.633
411.508	1064.697
411.842	1064.739
412.175	1064.266
412.509	1065.029
412.842	1065.301
413.176	1066.474
413.509	1064.889
413.842	1066.148
414.176	1067.160
414.509	1066.105
414.843	1065.883
415.176	1067.989
415.510	1067.392
415.843	1067.434
416.176	1067.240
416.510	1067.380
416.843	1067.855
417.177	1068.081
417.510	1067.218
417.844	1067.736
418.177	1068.347
418.510	1069.016
418.844	1068.973
419.177	1068.248
419.511	1068.826
419.844	1068.378
420.178	1069.040
420.511	1070.341
420.845	1069.168
421.178	1069.322
421.511	1069.531
421.845	1070.026
422.178	1069.364
422.512	1071.487
422.845	1071.144
423.179	1070.853
423.512	1071.036
423.845	1071.301
424.179	1071.010
424.512	1071.865
424.846	1071.426
425.179	1071.785
425.513	1072.936
425.846	1071.541
426.179	1073.073
426.513	1072.893
426.846	1072.615
427.180	1073.742
427.513	1072.485
427.847	1073.093
428.180	1073.306
428.513	1073.128
428.847	1074.033
429.180	1074.346
429.514	1073.999
429.847	1073.413
430.181	1074.384
430.514	1075.750
430.847	1073.918
431.181	1074.996
431.514	1074.912
431.848	1075.229
432.181	1075.287
432.515	1075.765
432.848	1075.037
433.181	1076.067
433.515	1075.906
433.848	1075.416
434.182	1076.299
434.515	1076.409
434.849	1076.358
435.182	1075.943
435.516	1076.837
435.849	1077.360
436.182	1076.760
436.516	1076.880
436.849	1076.931
437.183	1077.128
437.516	1076.892
437.850	1077.587
438.183	1078.129
438.516	1078.120
438.850	1077.863
439.183	1079.262
439.517	1078.609
439.850	1078.886
440.184	1078.995
440.517	1078.201
440.850	1079.203
441.184	1079.464
441.517	1079.294
441.851	1080.177
442.184	1080.721
442.518	1080.483
442.851	1080.048
443.184	1079.325
443.518	1079.774
443.851	1080.236
444.185	1080.611
444.518	1081.236
444.852	1080.343
445.185	1080.328
445.518	1081.222
445.852	1081.129
446.185	1080.735
446.519	1081.706
446.852	1081.993
447.186	1081.386
447.519	1082.524
447.852	1081.423
448.186	1082.654
448.519	1082.130
448.853	1082.609
449.186	1083.584
449.520	1083.795
449.853	1082.478
450.187	1084.166
450.520	1083.481
450.853	1083.524
451.187	1083.160
451.520	1083.216
451.854	1083.552
452.187	1084.091
452.521	1083.412
452.854	1084.286
453.187	1084.911
453.521	1084.307
453.854	1085.456
454.188	1084.679
454.521	1085.022
454.855	1085.234
455.188	1086.173
455.521	1085.061
455.855	1086.085
456.188	1085.445
456.522	1085.732
456.855	1085.836
457.189	1085.509
457.522	1085.659
457.855	1086.782
458.189	1086.153
458.522	1086.771
458.856	1086.663
459.189	1086.448
459.523	1087.363
459.856	1086.737
460.189	1087.674
460.523	1087.068
460.856	1087.396
461.190	1087.806
461.523	1087.481
461.857	1087.838
462.190	1086.974
462.523	1087.816
462.857	1087.395
463.190	1088.066
463.524	1088.220
463.857	1087.870
464.191	1088.898
464.524	1088.654
464.858	1087.325
465.191	1088.229
465.524	1088.134
465.858	1088.687
466.191	1087.984
466.525	1088.434
466.858	1089.831
467.192	1089.749
467.525	1088.966
467.858	1090.464
468.192	1090.041
468.525	1090.012
468.859	1090.916
469.192	1089.819
469.526	1090.201
469.859	1090.345
470.192	1091.238
470.526	1090.218
470.859	1091.387
471.193	1091.685
471.526	1089.567
471.860	1090.696
472.193	1091.396
472.526	1090.141
472.860	1090.827
473.193	1090.876
473.527	1091.198
473.860	1091.389
474.194	1092.349
474.527	1092.184
474.860	1091.790
475.194	1091.372
475.527	1091.436
475.861	1091.991
476.194	1092.365
476.528	1091.517
476.861	1091.827
477.194	1091.280
477.528	1093.323
477.861	1093.341
478.195	1092.707
478.528	1093.579
478.862	1092.167
479.195	1093.224
479.529	1094.048
479.862	1092.761
480.195	1092.615
480.529	1093.369
480.862	1093.675
481.196	1094.339
481.529	1093.349
481.863	1092.783
482.196	1093.162
482.529	1093.290
482.863	1093.426
483.196	1093.608
483.530	1094.168
483.863	1093.705
484.197	1094.076
484.530	1094.707
484.863	1094.611
485.197	1094.382
485.530	1094.287
485.864	1094.622
486.197	1094.529
486.531	1094.148
486.864	1094.413
487.197	1094.033
487.531	1095.206
487.864	1095.042
488.198	1095.296
488.531	1095.630
488.865	1095.944
489.198	1095.674
489.531	1094.033
489.865	1096.337
490.198	1095.349
490.532	1094.964
490.865	1095.808
491.199	1095.390
491.532	1096.132
491.865	1095.943
492.199	1095.140
492.532	1095.262
492.866	1096.247
493.199	1096.210
493.533	1095.417
493.866	1095.703
494.200	1097.435
494.533	1097.056
494.866	1097.265
495.200	1095.906
495.533	1097.467
495.867	1096.320
496.200	1096.378
496.534	1097.195
496.867	1096.354
497.200	1097.088
497.534	1096.833
497.867	1096.369
498.201	1096.626
498.534	1097.085
498.868	1096.773
499.201	1097.251
499.534	1097.723
499.868	1097.291
500.201	1098.742
500.535	1097.478
500.868	1098.291
501.202	1097.879
501.535	1097.796
501.868	1098.594
502.202	1098.627
502.535	1097.823
502.869	1097.619
503.202	1098.958
503.536	1098.292
503.869	1098.009
504.202	1098.546
504.536	1098.804
504.869	1096.705
505.203	1098.010
505.536	1098.151
505.870	1098.607
506.203	1097.380
506.536	1097.883
506.870	1098.550
507.203	1098.332
507.537	1098.807
507.870	1099.211
508.204	1098.376
508.537	1097.813
508.871	1099.047
509.204	1098.977
509.537	1097.926
509.871	1098.696
510.204	1099.417
510.538	1098.499
510.871	1098.901
511.205	1099.858
511.538	1098.980
511.871	1099.083
512.205	1098.985
512.538	1099.178
512.872	1099.196
513.205	1098.977
513.539	1099.119
513.872	1099.449
514.205	1097.935
514.539	1098.802
514.872	1099.821
515.206	1099.289
515.539	1099.547
515.873	1099.766
516.206	1099.857
516.539	1099.150
516.873	1100.598
517.206	1098.755
517.540	1099.620
517.873	1099.073
518.207	1099.053
518.540	1099.578
518.873	1099.614
519.207	1099.466
519.540	1099.096
519.874	1100.066
520.207	1100.679
520.541	1100.905
520.874	1100.318
521.207	1099.865
521.541	1099.607
521.874	1099.250
522.208	1099.596
522.541	1100.451
522.875	1100.140
523.208	1100.481
523.542	1100.377
523.875	1100.720
524.208	1099.758
524.542	1100.884
524.875	1100.566
525.209	1100.111
525.542	1100.425
525.876	1101.246
526.209	1100.048
526.542	1100.395
526.876	1100.824
527.209	1100.224
527.543	1100.425
527.876	1100.671
528.210	1100.181
528.543	1100.315
528.876	1100.133
529.210	1100.166
529.543	1100.660
529.877	1099.796
530.210	1101.375
530.544	1100.011
530.877	1100.290
531.210	1099.569
531.544	1099.944
531.877	1100.465
532.211	1100.401
532.544	1100.174
532.878	1099.715
533.211	1100.688
533.544	1100.180
533.878	1101.114
534.211	1099.974
534.545	1099.739
534.878	1100.218
535.212	1099.969
535.545	1101.112
535.878	1099.457
536.212	1099.333
536.545	1101.151
536.879	1099.889
537.212	1100.638
537.546	1101.106
537.879	1100.347
538.213	1100.458
538.546	1100.367
538.879	1100.386
539.213	1100.724
539.546	1101.236
539.880	1100.040
540.213	1100.350
540.547	1099.576
540.880	1099.843
541.213	1099.819
541.547	1100.171
541.880	1100.394
542.214	1099.472
542.547	1099.745
542.881	1101.200
543.214	1100.256
543.547	1101.168
543.881	1100.165
544.214	1100.576
544.548	1100.333
544.881	1100.145
545.215	1099.662
545.548	1100.794
545.881	1099.534
546.215	1100.119
546.548	1100.881
546.882	1099.653
547.215	1100.358
547.549	1100.214
547.882	1100.480
548.215	1099.771
548.549	1100.297
548.882	1099.542
549.216	1099.688
549.549	1100.120
549.883	1100.768
550.216	1099.380
550.549	1100.464
550.883	1100.493
551.216	1099.198
551.550	1100.072
551.883	1100.620
552.217	1100.139
552.550	1099.148
552.884	1099.213
553.217	1099.855
553.550	1099.897
553.884	1099.661
554.217	1100.056
554.551	1099.225
554.884	1099.913
555.218	1099.166
555.551	1099.173
555.884	1099.064
556.218	1099.857
556.551	1099.861
556.885	1098.879
557.218	1099.770
557.552	1098.638
557.885	1099.450
558.218	1098.936
558.552	1099.226
558.885	1099.080
559.219	1098.637
559.552	1099.110
559.886	1098.699
560.219	1099.978
560.552	1098.504
560.886	1098.618
561.219	1098.981
561.553	1099.447
561.886	1099.616
562.220	1098.267
562.553	1098.767
562.886	1098.982
563.220	1098.933
563.553	1098.565
563.887	1097.783
564.220	1097.735
564.554	1098.835
564.887	1098.408
565.220	1098.209
565.554	1099.045
565.887	1098.856
566.221	1099.411
566.554	1097.835
566.888	1097.671
567.221	1098.366
567.555	1097.993
567.888	1097.933
568.221	1098.357
568.555	1097.980
568.888	1097.972
569.222	1097.916
569.555	1096.958
569.889	1097.358
570.222	1097.551
570.555	1097.333
570.889	1097.659
571.222	1096.782
571.556	1097.105
571.889	1097.680
572.223	1096.924
572.556	1097.534
572.889	1097.595
573.223	1096.835
573.556	1096.951
573.890	1097.512
574.223	1097.266
574.557	1096.083
574.890	1095.895
575.223	1096.786
575.557	1095.884
575.890	1096.620
576.224	1096.001
576.557	1096.634
576.891	1096.416
577.224	1096.163
577.557	1096.671
577.891	1096.921
578.224	1095.949
578.558	1096.473
578.891	1095.403
579.225	1096.222
579.558	1094.795
579.892	1095.786
580.225	1094.996
580.558	1094.990
580.892	1096.423
581.225	1096.708
581.559	1095.472
581.892	1095.177
582.226	1094.452
582.559	1095.389
582.892	1094.561
583.226	1094.906
583.559	1094.236
583.893	1095.546
584.226	1094.653
584.560	1094.312
584.893	1095.556
585.226	1094.727
585.560	1094.664
585.893	1095.028
586.227	1094.407
586.560	1093.528
586.894	1095.019
587.227	1094.078
587.560	1094.349
587.894	1093.980
588.227	1095.192
588.561	1093.542
588.894	1093.502
589.228	1094.809
589.561	1093.462
589.894	1093.460
590.228	1094.717
590.561	1093.374
590.895	1092.625
591.228	1093.270
591.562	1093.265
591.895	1092.444
592.228	1092.767
592.562	1092.256
592.895	1092.948
593.229	1092.421
593.562	1091.841
593.896	1091.367
594.229	1092.660
594.563	1091.992
594.896	1091.734
595.229	1092.238
595.563	1091.470
595.896	1091.807
596.230	1091.283
596.563	1091.654
596.897	1091.292
597.230	1091.585
597.563	1090.574
597.897	1091.925
598.230	1090.752
598.564	1091.176
598.897	1090.507
599.231	1090.874
599.564	1091.608
599.897	1090.911
600.231	1091.216
600.564	1090.207
600.898	1089.753
601.231	1089.720
601.565	1090.305
601.898	1090.050
602.231	1089.068
602.565	1090.351
602.898	1088.558
603.232	1089.345
603.565	1089.873
603.899	1089.711
604.232	1089.465
604.565	1089.687
604.899	1088.331
605.232	1089.288
605.566	1088.868
605.899	1088.532
606.233	1089.182
606.566	1088.174
606.899	1088.765
607.233	1089.168
607.566	1088.216
607.900	1087.783
608.233	1088.650
608.567	1087.247
608.900	1087.670
609.234	1087.876
609.567	1087.150
609.900	1086.443
610.234	1087.117
610.567	1086.619
610.901	1088.040
611.234	1087.564
611.568	1086.108
611.901	1086.187
612.234	1086.636
612.568	1086.189
612.901	1086.315
613.235	1085.933
613.568	1085.389
613.902	1086.138
614.235	1085.616
614.568	1085.457
614.902	1085.709
615.235	1085.835
615.569	1085.985
615.902	1085.770
616.236	1085.284
616.569	1084.743
616.902	1084.807
617.236	1084.211
617.569	1084.544
617.903	1084.411
618.236	1083.610
618.570	1083.886
618.903	1084.077
619.236	1084.430
619.570	1083.663
619.903	1083.358
620.237	1084.448
620.570	1083.421
620.904	1083.304
621.237	1082.440
621.570	1083.007
621.904	1082.862
622.237	1082.876
622.571	1081.745
622.904	1081.994
623.238	1082.756
623.571	1082.314
623.905	1081.548
624.238	1081.706
624.571	1081.635
624.905	1081.828
625.238	1081.834
625.572	1081.035
625.905	1080.886
626.239	1081.133
626.572	1081.649
626.905	1081.085
627.239	1080.818
627.572	1080.487
627.906	1079.523
628.239	1080.360
628.573	1080.485
628.906	1079.330
629.239	1080.079
629.573	1080.476
629.906	1079.248
630.240	1079.215
630.573	1078.924
630.907	1079.113
631.240	1078.895
631.573	1079.568
631.907	1077.978
632.240	1079.110
632.574	1078.454
632.907	1077.371
633.241	1078.402
633.574	1077.181
633.907	1077.800
634.241	1077.725
634.574	1076.686
634.908	1076.567
635.241	1077.673
635.575	1076.631
635.908	1076.853
636.241	1076.974
636.575	1076.651
636.908	1076.128
637.242	1075.884
637.575	1076.370
637.909	1075.175
638.242	1075.846
638.576	1074.782
638.909	1074.729
639.242	1075.454
639.576	1074.586
639.909	1075.790
640.243	1074.806
640.576	1075.357
640.910	1074.142
641.243	1074.233
641.576	1074.168
641.910	1073.158
642.243	1074.815
642.577	1073.769
642.910	1074.513
643.244	1073.843
643.577	1074.189
643.910	1072.319
644.244	1072.061
644.577	1072.902
644.911	1072.874
645.244	1072.057
645.578	1072.512
645.911	1072.209
646.244	1072.583
646.578	1071.247
646.911	1070.385
647.245	1071.482
647.578	1070.331
647.912	1071.730
648.245	1070.013
648.578	1071.610
648.912	1069.992
649.245	1068.942
649.579	1069.574
649.912	1069.279
650.246	1069.200
650.579	1069.098
650.912	1069.109
651.246	1069.775
651.579	1068.825
651.913	1069.076
652.246	1070.240
652.580	1068.080
652.913	1067.835
653.247	1068.227
653.580	1067.243
653.913	1067.861
654.247	1067.461
654.580	1066.882
654.914	1067.205
655.247	1066.771
655.581	1066.976
655.914	1066.295
656.247	1065.833
656.581	1066.467
656.914	1065.638
657.248	1065.573
657.581	1065.915
657.915	1065.501
658.248	1065.584
658.581	1064.796
658.915	1065.035
659.248	1065.671
659.582	1063.693
659.915	1064.101
660.249	1063.963
660.582	1064.742
660.915	1063.549
661.249	1063.186
661.582	1063.314
661.916	1063.597
662.249	1062.757
662.583	1061.848
662.916	1061.957
663.249	1061.838
663.583	1062.361
663.916	1062.542
664.250	1060.578
664.583	1061.858
664.917	1061.952
665.250	1060.657
665.583	1061.208
665.917	1060.433
666.250	1060.656
666.584	1060.087
666.917	1060.403
667.251	1060.493
667.584	1060.127
667.918	1059.871
668.251	1059.109
668.584	1059.184
668.918	1059.281
669.251	1058.678
669.585	1058.407
669.918	1058.018
670.252	1057.490
670.585	1057.562
670.918	1057.245
671.252	1057.552
671.585	1057.509
671.919	1057.088
672.252	1056.968
672.586	1057.210
672.919	1055.201
673.252	1056.156
673.586	1056.655
673.919	1056.622
674.253	1055.473
674.586	1055.787
674.920	1055.278
675.253	1054.585
675.586	1055.634
675.920	1054.351
676.253	1055.257
676.587	1053.645
676.920	1054.512
677.254	1053.684
677.587	1053.298
677.920	1053.553
678.254	1053.204
678.587	1052.193
678.921	1052.144
679.254	1053.010
679.588	1052.292
679.921	1052.700
680.254	1052.454
680.588	1051.392
680.921	1050.801
681.255	1050.465
681.588	1050.324
681.922	1051.660
682.255	1050.997
682.589	1050.033
682.922	1049.002
683.255	1048.558
683.589	1049.341
683.922	1048.932
684.256	1049.145
684.589	1049.462
684.923	1047.736
685.256	1048.048
685.589	1047.995
685.923	1048.520
686.256	1048.359
686.590	1047.837
686.923	1046.894
687.257	1047.166
687.590	1046.305
687.923	1045.675
688.257	1046.179
688.590	1046.181
688.924	1045.026
689.257	1046.129
689.591	1044.487
689.924	1045.587
690.257	1044.536
690.591	1043.681
690.924	1044.659
691.258	1043.054
691.591	1044.461
691.925	1043.638
692.258	1043.935
692.591	1043.014
692.925	1042.867
693.258	1043.029
693.592	1042.045
693.925	1042.388
694.259	1041.558
694.592	1040.868
694.925	1040.758
695.259	1040.578
695.592	1041.286
695.926	1041.656
696.259	1040.156
696.593	1039.417
696.926	1039.375
697.260	1039.530
697.593	1038.872
697.926	1038.621
698.260	1039.070
698.593	1038.602
698.927	1039.333
699.260	1039.922
699.594	1037.246
699.927	1038.352
700.260	1036.833
700.594	1036.622
700.927	1037.342
701.261	1036.027
701.594	1037.493
701.928	1036.108
702.261	1035.869
702.594	1035.561
702.928	1035.782
703.261	1034.627
703.595	1034.270
703.928	1035.856
704.262	1033.673
704.595	1033.351
704.928	1034.119
705.262	1033.366
705.595	1033.508
705.929	1033.583
706.262	1033.070
706.596	1033.172
706.929	1031.655
707.262	1032.425
707.596	1032.425
707.929	1030.979
708.263	1031.384
708.596	1030.705
708.930	1030.821
709.263	1029.948
709.596	1030.237
709.930	1029.809
710.263	1029.778
710.597	1028.983
710.930	1029.366
711.264	1028.940
711.597	1029.219
711.931	1028.230
712.264	1027.382
712.597	1028.105
712.931	1027.449
713.264	1027.876
713.598	1027.161
713.931	1026.994
714.265	1025.642
714.598	1025.670
714.931	1026.014
715.265	1025.585
715.598	1025.257
715.932	1026.190
716.265	1025.797
716.599	1024.184
716.932	1024.278
717.265	1024.718
717.599	1023.913
717.932	1023.589
718.266	1023.187
718.599	1023.311
718.933	1022.726
719.266	1022.565
719.599	1021.870
719.933	1022.694
720.266	1022.017
720.600	1020.725
720.933	1020.891
721.267	1021.375
721.600	1019.762
721.933	1019.499
722.267	1019.815
722.600	1019.421
722.934	1019.646
723.267	1018.905
723.601	1020.174
723.934	1018.446
724.267	1018.691
724.601	1017.483
